#  E (eV)   dos(E)     Int dos(E) EFermi =   -2.122 eV
 -22.141  0.0000E+00  0.0000E+00
 -22.131  0.2599E+00  0.1300E-02
 -22.121  0.2478E+00  0.4907E-02
 -22.111  0.2695E+00  0.7494E-02
 -22.101  0.2912E+00  0.1030E-01
 -22.091  0.3128E+00  0.1332E-01
 -22.081  0.3180E+00  0.1653E-01
 -22.071  0.2910E+00  0.1957E-01
 -22.061  0.2796E+00  0.2238E-01
 -22.051  0.2872E+00  0.2522E-01
 -22.041  0.2948E+00  0.2813E-01
 -22.031  0.3024E+00  0.3111E-01
 -22.021  0.3100E+00  0.3417E-01
 -22.011  0.3177E+00  0.3731E-01
 -22.001  0.2934E+00  0.4030E-01
 -21.991  0.2917E+00  0.4323E-01
 -21.981  0.2900E+00  0.4614E-01
 -21.971  0.2884E+00  0.4903E-01
 -21.961  0.2923E+00  0.5193E-01
 -21.951  0.2961E+00  0.5487E-01
 -21.941  0.3000E+00  0.5786E-01
 -21.931  0.3039E+00  0.6087E-01
 -21.921  0.3077E+00  0.6393E-01
 -21.911  0.3063E+00  0.6702E-01
 -21.901  0.2962E+00  0.7003E-01
 -21.891  0.2914E+00  0.7296E-01
 -21.881  0.2921E+00  0.7587E-01
 -21.871  0.2928E+00  0.7880E-01
 -21.861  0.2935E+00  0.8173E-01
 -21.851  0.2942E+00  0.8467E-01
 -21.841  0.2949E+00  0.8761E-01
 -21.831  0.2970E+00  0.9057E-01
 -21.821  0.2993E+00  0.9355E-01
 -21.811  0.3016E+00  0.9656E-01
 -21.801  0.3040E+00  0.9959E-01
 -21.791  0.3063E+00  0.1026E+00
 -21.781  0.2991E+00  0.1057E+00
 -21.771  0.2973E+00  0.1087E+00
 -21.761  0.2954E+00  0.1116E+00
 -21.751  0.2935E+00  0.1146E+00
 -21.741  0.2929E+00  0.1175E+00
 -21.731  0.2938E+00  0.1204E+00
 -21.721  0.2947E+00  0.1234E+00
 -21.711  0.2956E+00  0.1263E+00
 -21.701  0.2966E+00  0.1293E+00
 -21.691  0.2975E+00  0.1323E+00
 -21.681  0.2984E+00  0.1353E+00
 -21.671  0.2993E+00  0.1382E+00
 -21.661  0.3008E+00  0.1412E+00
 -21.651  0.3024E+00  0.1443E+00
 -21.641  0.3040E+00  0.1473E+00
 -21.631  0.3045E+00  0.1503E+00
 -21.621  0.2998E+00  0.1534E+00
 -21.611  0.2963E+00  0.1563E+00
 -21.601  0.2961E+00  0.1593E+00
 -21.591  0.2958E+00  0.1623E+00
 -21.581  0.2956E+00  0.1652E+00
 -21.571  0.2953E+00  0.1682E+00
 -21.561  0.2951E+00  0.1711E+00
 -21.551  0.2955E+00  0.1741E+00
 -21.541  0.2963E+00  0.1770E+00
 -21.531  0.2971E+00  0.1800E+00
 -21.521  0.2980E+00  0.1830E+00
 -21.511  0.2988E+00  0.1860E+00
 -21.501  0.2996E+00  0.1889E+00
 -21.491  0.3004E+00  0.1919E+00
 -21.481  0.3012E+00  0.1950E+00
 -21.471  0.3021E+00  0.1980E+00
 -21.461  0.3030E+00  0.2010E+00
 -21.451  0.3041E+00  0.2040E+00
 -21.441  0.2999E+00  0.2071E+00
 -21.431  0.2988E+00  0.2101E+00
 -21.421  0.2977E+00  0.2130E+00
 -21.411  0.2966E+00  0.2160E+00
 -21.401  0.2964E+00  0.2190E+00
 -21.391  0.2965E+00  0.2219E+00
 -21.381  0.2967E+00  0.2249E+00
 -21.371  0.2969E+00  0.2279E+00
 -21.361  0.2971E+00  0.2308E+00
 -21.351  0.2973E+00  0.2338E+00
 -21.341  0.2974E+00  0.2368E+00
 -21.331  0.2977E+00  0.2398E+00
 -21.321  0.2984E+00  0.2427E+00
 -21.311  0.2991E+00  0.2457E+00
 -21.301  0.2998E+00  0.2487E+00
 -21.291  0.3005E+00  0.2517E+00
 -21.281  0.3011E+00  0.2547E+00
 -21.271  0.3018E+00  0.2577E+00
 -21.261  0.3025E+00  0.2608E+00
 -21.251  0.3032E+00  0.2638E+00
 -21.241  0.3039E+00  0.2668E+00
 -21.231  0.3017E+00  0.2699E+00
 -21.221  0.2989E+00  0.2729E+00
 -21.211  0.2985E+00  0.2759E+00
 -21.201  0.2982E+00  0.2788E+00
 -21.191  0.2980E+00  0.2818E+00
 -21.181  0.2978E+00  0.2848E+00
 -21.171  0.2975E+00  0.2878E+00
 -21.161  0.2975E+00  0.2907E+00
 -21.151  0.2978E+00  0.2937E+00
 -21.141  0.2981E+00  0.2967E+00
 -21.131  0.2984E+00  0.2997E+00
 -21.121  0.2987E+00  0.3027E+00
 -21.111  0.2990E+00  0.3057E+00
 -21.101  0.2993E+00  0.3086E+00
 -21.091  0.2996E+00  0.3116E+00
 -21.081  0.2999E+00  0.3146E+00
 -21.071  0.3002E+00  0.3176E+00
 -21.061  0.3007E+00  0.3206E+00
 -21.051  0.3013E+00  0.3237E+00
 -21.041  0.3019E+00  0.3267E+00
 -21.031  0.3025E+00  0.3297E+00
 -21.021  0.3030E+00  0.3327E+00
 -21.011  0.3036E+00  0.3358E+00
 -21.001  0.3042E+00  0.3388E+00
 -20.991  0.3014E+00  0.3418E+00
 -20.981  0.3006E+00  0.3448E+00
 -20.971  0.2998E+00  0.3478E+00
 -20.961  0.2990E+00  0.3508E+00
 -20.951  0.2989E+00  0.3538E+00
 -20.941  0.2988E+00  0.3568E+00
 -20.931  0.2989E+00  0.3598E+00
 -20.921  0.2989E+00  0.3628E+00
 -20.911  0.2990E+00  0.3658E+00
 -20.901  0.2990E+00  0.3688E+00
 -20.891  0.2991E+00  0.3718E+00
 -20.881  0.2992E+00  0.3747E+00
 -20.871  0.2995E+00  0.3777E+00
 -20.861  0.2998E+00  0.3807E+00
 -20.851  0.3002E+00  0.3837E+00
 -20.841  0.3005E+00  0.3867E+00
 -20.831  0.3008E+00  0.3897E+00
 -20.821  0.3011E+00  0.3928E+00
 -20.811  0.3015E+00  0.3958E+00
 -20.801  0.3018E+00  0.3988E+00
 -20.791  0.3021E+00  0.4018E+00
 -20.781  0.3024E+00  0.4048E+00
 -20.771  0.3028E+00  0.4078E+00
 -20.761  0.3033E+00  0.4109E+00
 -20.751  0.3038E+00  0.4139E+00
 -20.741  0.3042E+00  0.4170E+00
 -20.731  0.3036E+00  0.4200E+00
 -20.721  0.3019E+00  0.4230E+00
 -20.711  0.3011E+00  0.4260E+00
 -20.701  0.3008E+00  0.4290E+00
 -20.691  0.3006E+00  0.4321E+00
 -20.681  0.3004E+00  0.4351E+00
 -20.671  0.3002E+00  0.4381E+00
 -20.661  0.2999E+00  0.4411E+00
 -20.651  0.3000E+00  0.4441E+00
 -20.641  0.3001E+00  0.4471E+00
 -20.631  0.3002E+00  0.4501E+00
 -20.621  0.3004E+00  0.4531E+00
 -20.611  0.3005E+00  0.4561E+00
 -20.601  0.3007E+00  0.4591E+00
 -20.591  0.3008E+00  0.4621E+00
 -20.581  0.3010E+00  0.4651E+00
 -20.571  0.3011E+00  0.4681E+00
 -20.561  0.3014E+00  0.4711E+00
 -20.551  0.3017E+00  0.4741E+00
 -20.541  0.3020E+00  0.4772E+00
 -20.531  0.3023E+00  0.4802E+00
 -20.521  0.3027E+00  0.4832E+00
 -20.511  0.3030E+00  0.4862E+00
 -20.501  0.3033E+00  0.4893E+00
 -20.491  0.3036E+00  0.4923E+00
 -20.481  0.3039E+00  0.4953E+00
 -20.471  0.3042E+00  0.4984E+00
 -20.461  0.3045E+00  0.5014E+00
 -20.451  0.3048E+00  0.5045E+00
 -20.441  0.3051E+00  0.5075E+00
 -20.431  0.3031E+00  0.5105E+00
 -20.421  0.3026E+00  0.5136E+00
 -20.411  0.3021E+00  0.5166E+00
 -20.401  0.3017E+00  0.5196E+00
 -20.391  0.3017E+00  0.5226E+00
 -20.381  0.3016E+00  0.5257E+00
 -20.371  0.3016E+00  0.5287E+00
 -20.361  0.3016E+00  0.5317E+00
 -20.351  0.3016E+00  0.5347E+00
 -20.341  0.3016E+00  0.5377E+00
 -20.331  0.3016E+00  0.5407E+00
 -20.321  0.3017E+00  0.5437E+00
 -20.311  0.3018E+00  0.5468E+00
 -20.301  0.3020E+00  0.5498E+00
 -20.291  0.3021E+00  0.5528E+00
 -20.281  0.3023E+00  0.5558E+00
 -20.271  0.3025E+00  0.5589E+00
 -20.261  0.3027E+00  0.5619E+00
 -20.251  0.3029E+00  0.5649E+00
 -20.241  0.3030E+00  0.5679E+00
 -20.231  0.3032E+00  0.5710E+00
 -20.221  0.3034E+00  0.5740E+00
 -20.211  0.3037E+00  0.5770E+00
 -20.201  0.3040E+00  0.5801E+00
 -20.191  0.3043E+00  0.5831E+00
 -20.181  0.3046E+00  0.5862E+00
 -20.171  0.3048E+00  0.5892E+00
 -20.161  0.3051E+00  0.5923E+00
 -20.151  0.3054E+00  0.5953E+00
 -20.141  0.3057E+00  0.5984E+00
 -20.131  0.3060E+00  0.6014E+00
 -20.121  0.3056E+00  0.6045E+00
 -20.111  0.3044E+00  0.6075E+00
 -20.101  0.3038E+00  0.6106E+00
 -20.091  0.3036E+00  0.6136E+00
 -20.081  0.3034E+00  0.6166E+00
 -20.071  0.3032E+00  0.6197E+00
 -20.061  0.3030E+00  0.6227E+00
 -20.051  0.3029E+00  0.6257E+00
 -20.041  0.3030E+00  0.6288E+00
 -20.031  0.3031E+00  0.6318E+00
 -20.021  0.3032E+00  0.6348E+00
 -20.011  0.3032E+00  0.6379E+00
 -20.001  0.3033E+00  0.6409E+00
 -19.991  0.3034E+00  0.6439E+00
 -19.981  0.3035E+00  0.6470E+00
 -19.971  0.3036E+00  0.6500E+00
 -19.961  0.3036E+00  0.6530E+00
 -19.951  0.3038E+00  0.6561E+00
 -19.941  0.3040E+00  0.6591E+00
 -19.931  0.3042E+00  0.6621E+00
 -19.921  0.3043E+00  0.6652E+00
 -19.911  0.3045E+00  0.6682E+00
 -19.901  0.3047E+00  0.6713E+00
 -19.891  0.3049E+00  0.6743E+00
 -19.881  0.3051E+00  0.6774E+00
 -19.871  0.3053E+00  0.6804E+00
 -19.861  0.3055E+00  0.6835E+00
 -19.851  0.3057E+00  0.6865E+00
 -19.841  0.3059E+00  0.6896E+00
 -19.831  0.3061E+00  0.6927E+00
 -19.821  0.3064E+00  0.6957E+00
 -19.811  0.3066E+00  0.6988E+00
 -19.801  0.3069E+00  0.7019E+00
 -19.791  0.3072E+00  0.7049E+00
 -19.781  0.3074E+00  0.7080E+00
 -19.771  0.3062E+00  0.7111E+00
 -19.761  0.3058E+00  0.7141E+00
 -19.751  0.3055E+00  0.7172E+00
 -19.741  0.3051E+00  0.7202E+00
 -19.731  0.3050E+00  0.7233E+00
 -19.721  0.3050E+00  0.7263E+00
 -19.711  0.3050E+00  0.7294E+00
 -19.701  0.3049E+00  0.7324E+00
 -19.691  0.3049E+00  0.7355E+00
 -19.681  0.3049E+00  0.7385E+00
 -19.671  0.3048E+00  0.7416E+00
 -19.661  0.3049E+00  0.7446E+00
 -19.651  0.3050E+00  0.7477E+00
 -19.641  0.3051E+00  0.7507E+00
 -19.631  0.3052E+00  0.7538E+00
 -19.621  0.3054E+00  0.7568E+00
 -19.611  0.3055E+00  0.7599E+00
 -19.601  0.3056E+00  0.7629E+00
 -19.591  0.3057E+00  0.7660E+00
 -19.581  0.3059E+00  0.7691E+00
 -19.571  0.3060E+00  0.7721E+00
 -19.561  0.3061E+00  0.7752E+00
 -19.551  0.3063E+00  0.7782E+00
 -19.541  0.3065E+00  0.7813E+00
 -19.531  0.3066E+00  0.7844E+00
 -19.521  0.3068E+00  0.7874E+00
 -19.511  0.3070E+00  0.7905E+00
 -19.501  0.3072E+00  0.7936E+00
 -19.491  0.3074E+00  0.7966E+00
 -19.481  0.3076E+00  0.7997E+00
 -19.471  0.3078E+00  0.8028E+00
 -19.461  0.3080E+00  0.8059E+00
 -19.451  0.3082E+00  0.8090E+00
 -19.441  0.3084E+00  0.8120E+00
 -19.431  0.3086E+00  0.8151E+00
 -19.421  0.3088E+00  0.8182E+00
 -19.411  0.3090E+00  0.8213E+00
 -19.401  0.3082E+00  0.8244E+00
 -19.391  0.3075E+00  0.8275E+00
 -19.381  0.3074E+00  0.8305E+00
 -19.371  0.3073E+00  0.8336E+00
 -19.361  0.3072E+00  0.8367E+00
 -19.351  0.3071E+00  0.8398E+00
 -19.341  0.3070E+00  0.8428E+00
 -19.331  0.3070E+00  0.8459E+00
 -19.321  0.3070E+00  0.8490E+00
 -19.311  0.3071E+00  0.8520E+00
 -19.301  0.3071E+00  0.8551E+00
 -19.291  0.3072E+00  0.8582E+00
 -19.281  0.3072E+00  0.8613E+00
 -19.271  0.3073E+00  0.8643E+00
 -19.261  0.3073E+00  0.8674E+00
 -19.251  0.3074E+00  0.8705E+00
 -19.241  0.3075E+00  0.8735E+00
 -19.231  0.3076E+00  0.8766E+00
 -19.221  0.3077E+00  0.8797E+00
 -19.211  0.3079E+00  0.8828E+00
 -19.201  0.3080E+00  0.8859E+00
 -19.191  0.3081E+00  0.8889E+00
 -19.181  0.3083E+00  0.8920E+00
 -19.171  0.3084E+00  0.8951E+00
 -19.161  0.3086E+00  0.8982E+00
 -19.151  0.3087E+00  0.9013E+00
 -19.141  0.3089E+00  0.9044E+00
 -19.131  0.3090E+00  0.9074E+00
 -19.121  0.3092E+00  0.9105E+00
 -19.111  0.3094E+00  0.9136E+00
 -19.101  0.3096E+00  0.9167E+00
 -19.091  0.3097E+00  0.9198E+00
 -19.081  0.3099E+00  0.9229E+00
 -19.071  0.3101E+00  0.9260E+00
 -19.061  0.3103E+00  0.9291E+00
 -19.051  0.3105E+00  0.9322E+00
 -19.041  0.3107E+00  0.9353E+00
 -19.031  0.3109E+00  0.9384E+00
 -19.021  0.3111E+00  0.9416E+00
 -19.011  0.3104E+00  0.9447E+00
 -19.001  0.3102E+00  0.9478E+00
 -18.991  0.3099E+00  0.9509E+00
 -18.981  0.3097E+00  0.9540E+00
 -18.971  0.3095E+00  0.9571E+00
 -18.961  0.3095E+00  0.9602E+00
 -18.951  0.3095E+00  0.9633E+00
 -18.941  0.3096E+00  0.9663E+00
 -18.931  0.3096E+00  0.9694E+00
 -18.921  0.3096E+00  0.9725E+00
 -18.911  0.3096E+00  0.9756E+00
 -18.901  0.3096E+00  0.9787E+00
 -18.891  0.3097E+00  0.9818E+00
 -18.881  0.3098E+00  0.9849E+00
 -18.871  0.3099E+00  0.9880E+00
 -18.861  0.3100E+00  0.9911E+00
 -18.851  0.3101E+00  0.9942E+00
 -18.841  0.3102E+00  0.9973E+00
 -18.831  0.3103E+00  0.1000E+01
 -18.821  0.3104E+00  0.1004E+01
 -18.811  0.3105E+00  0.1007E+01
 -18.801  0.3106E+00  0.1010E+01
 -18.791  0.3107E+00  0.1013E+01
 -18.781  0.3109E+00  0.1016E+01
 -18.771  0.3110E+00  0.1019E+01
 -18.761  0.3112E+00  0.1022E+01
 -18.751  0.3113E+00  0.1025E+01
 -18.741  0.3115E+00  0.1028E+01
 -18.731  0.3116E+00  0.1032E+01
 -18.721  0.3118E+00  0.1035E+01
 -18.711  0.3120E+00  0.1038E+01
 -18.701  0.3121E+00  0.1041E+01
 -18.691  0.3123E+00  0.1044E+01
 -18.681  0.3125E+00  0.1047E+01
 -18.671  0.3126E+00  0.1050E+01
 -18.661  0.3128E+00  0.1053E+01
 -18.651  0.3130E+00  0.1057E+01
 -18.641  0.3131E+00  0.1060E+01
 -18.631  0.3133E+00  0.1063E+01
 -18.621  0.3135E+00  0.1066E+01
 -18.611  0.3137E+00  0.1069E+01
 -18.601  0.3139E+00  0.1072E+01
 -18.591  0.3136E+00  0.1075E+01
 -18.581  0.3130E+00  0.1078E+01
 -18.571  0.3129E+00  0.1082E+01
 -18.561  0.3129E+00  0.1085E+01
 -18.551  0.3128E+00  0.1088E+01
 -18.541  0.3128E+00  0.1091E+01
 -18.531  0.3127E+00  0.1094E+01
 -18.521  0.3128E+00  0.1097E+01
 -18.511  0.3128E+00  0.1100E+01
 -18.501  0.3129E+00  0.1103E+01
 -18.491  0.3130E+00  0.1107E+01
 -18.481  0.3130E+00  0.1110E+01
 -18.471  0.3131E+00  0.1113E+01
 -18.461  0.3132E+00  0.1116E+01
 -18.451  0.3133E+00  0.1119E+01
 -18.441  0.3134E+00  0.1122E+01
 -18.431  0.3135E+00  0.1125E+01
 -18.421  0.3136E+00  0.1129E+01
 -18.411  0.3137E+00  0.1132E+01
 -18.401  0.3139E+00  0.1135E+01
 -18.391  0.3140E+00  0.1138E+01
 -18.381  0.3141E+00  0.1141E+01
 -18.371  0.3143E+00  0.1144E+01
 -18.361  0.3144E+00  0.1147E+01
 -18.351  0.3146E+00  0.1151E+01
 -18.341  0.3147E+00  0.1154E+01
 -18.331  0.3148E+00  0.1157E+01
 -18.321  0.3150E+00  0.1160E+01
 -18.311  0.3151E+00  0.1163E+01
 -18.301  0.3153E+00  0.1166E+01
 -18.291  0.3154E+00  0.1169E+01
 -18.281  0.3156E+00  0.1173E+01
 -18.271  0.3158E+00  0.1176E+01
 -18.261  0.3159E+00  0.1179E+01
 -18.251  0.3161E+00  0.1182E+01
 -18.241  0.3163E+00  0.1185E+01
 -18.231  0.3165E+00  0.1188E+01
 -18.221  0.3167E+00  0.1192E+01
 -18.211  0.3168E+00  0.1195E+01
 -18.201  0.3170E+00  0.1198E+01
 -18.191  0.3172E+00  0.1201E+01
 -18.181  0.3174E+00  0.1204E+01
 -18.171  0.3176E+00  0.1207E+01
 -18.161  0.3178E+00  0.1211E+01
 -18.151  0.3173E+00  0.1214E+01
 -18.141  0.3173E+00  0.1217E+01
 -18.131  0.3172E+00  0.1220E+01
 -18.121  0.3171E+00  0.1223E+01
 -18.111  0.3171E+00  0.1226E+01
 -18.101  0.3172E+00  0.1230E+01
 -18.091  0.3173E+00  0.1233E+01
 -18.081  0.3173E+00  0.1236E+01
 -18.071  0.3174E+00  0.1239E+01
 -18.061  0.3175E+00  0.1242E+01
 -18.051  0.3175E+00  0.1245E+01
 -18.041  0.3176E+00  0.1249E+01
 -18.031  0.3178E+00  0.1252E+01
 -18.021  0.3179E+00  0.1255E+01
 -18.011  0.3180E+00  0.1258E+01
 -18.001  0.3182E+00  0.1261E+01
 -17.991  0.3183E+00  0.1265E+01
 -17.981  0.3184E+00  0.1268E+01
 -17.971  0.3186E+00  0.1271E+01
 -17.961  0.3187E+00  0.1274E+01
 -17.951  0.3188E+00  0.1277E+01
 -17.941  0.3190E+00  0.1280E+01
 -17.931  0.3192E+00  0.1284E+01
 -17.921  0.3194E+00  0.1287E+01
 -17.911  0.3196E+00  0.1290E+01
 -17.901  0.3198E+00  0.1293E+01
 -17.891  0.3200E+00  0.1296E+01
 -17.881  0.3201E+00  0.1300E+01
 -17.871  0.3203E+00  0.1303E+01
 -17.861  0.3205E+00  0.1306E+01
 -17.851  0.3207E+00  0.1309E+01
 -17.841  0.3209E+00  0.1312E+01
 -17.831  0.3211E+00  0.1316E+01
 -17.821  0.3213E+00  0.1319E+01
 -17.811  0.3215E+00  0.1322E+01
 -17.801  0.3217E+00  0.1325E+01
 -17.791  0.3219E+00  0.1329E+01
 -17.781  0.3221E+00  0.1332E+01
 -17.771  0.3223E+00  0.1335E+01
 -17.761  0.3225E+00  0.1338E+01
 -17.751  0.3228E+00  0.1341E+01
 -17.741  0.3230E+00  0.1345E+01
 -17.731  0.3232E+00  0.1348E+01
 -17.721  0.3234E+00  0.1351E+01
 -17.711  0.3237E+00  0.1354E+01
 -17.701  0.3239E+00  0.1358E+01
 -17.691  0.3239E+00  0.1361E+01
 -17.681  0.3237E+00  0.1364E+01
 -17.671  0.3238E+00  0.1367E+01
 -17.661  0.3239E+00  0.1371E+01
 -17.651  0.3240E+00  0.1374E+01
 -17.641  0.3241E+00  0.1377E+01
 -17.631  0.3243E+00  0.1380E+01
 -17.621  0.3244E+00  0.1384E+01
 -17.611  0.3246E+00  0.1387E+01
 -17.601  0.3249E+00  0.1390E+01
 -17.591  0.3251E+00  0.1393E+01
 -17.581  0.3253E+00  0.1397E+01
 -17.571  0.3255E+00  0.1400E+01
 -17.561  0.3257E+00  0.1403E+01
 -17.551  0.3259E+00  0.1406E+01
 -17.541  0.3261E+00  0.1410E+01
 -17.531  0.3264E+00  0.1413E+01
 -17.521  0.3266E+00  0.1416E+01
 -17.511  0.3269E+00  0.1419E+01
 -17.501  0.3271E+00  0.1423E+01
 -17.491  0.3274E+00  0.1426E+01
 -17.481  0.3276E+00  0.1429E+01
 -17.471  0.3279E+00  0.1432E+01
 -17.461  0.3282E+00  0.1436E+01
 -17.451  0.3285E+00  0.1439E+01
 -17.441  0.3287E+00  0.1442E+01
 -17.431  0.3290E+00  0.1446E+01
 -17.421  0.3293E+00  0.1449E+01
 -17.411  0.3297E+00  0.1452E+01
 -17.401  0.3301E+00  0.1455E+01
 -17.391  0.3305E+00  0.1459E+01
 -17.381  0.3308E+00  0.1462E+01
 -17.371  0.3312E+00  0.1465E+01
 -17.361  0.3316E+00  0.1469E+01
 -17.351  0.3320E+00  0.1472E+01
 -17.341  0.3324E+00  0.1475E+01
 -17.331  0.3328E+00  0.1479E+01
 -17.321  0.3331E+00  0.1482E+01
 -17.311  0.3335E+00  0.1485E+01
 -17.301  0.3339E+00  0.1489E+01
 -17.291  0.3343E+00  0.1492E+01
 -17.281  0.3347E+00  0.1495E+01
 -17.271  0.3351E+00  0.1499E+01
 -17.261  0.3355E+00  0.1502E+01
 -17.251  0.3360E+00  0.1505E+01
 -17.241  0.3364E+00  0.1509E+01
 -17.231  0.3369E+00  0.1512E+01
 -17.221  0.3373E+00  0.1516E+01
 -17.211  0.3375E+00  0.1519E+01
 -17.201  0.3379E+00  0.1522E+01
 -17.191  0.3382E+00  0.1526E+01
 -17.181  0.3388E+00  0.1529E+01
 -17.171  0.3394E+00  0.1532E+01
 -17.161  0.3400E+00  0.1536E+01
 -17.151  0.3406E+00  0.1539E+01
 -17.141  0.3413E+00  0.1543E+01
 -17.131  0.3419E+00  0.1546E+01
 -17.121  0.3425E+00  0.1549E+01
 -17.111  0.3432E+00  0.1553E+01
 -17.101  0.3439E+00  0.1556E+01
 -17.091  0.3446E+00  0.1560E+01
 -17.081  0.3454E+00  0.1563E+01
 -17.071  0.3463E+00  0.1567E+01
 -17.061  0.3472E+00  0.1570E+01
 -17.051  0.3482E+00  0.1574E+01
 -17.041  0.3491E+00  0.1577E+01
 -17.031  0.3500E+00  0.1581E+01
 -17.021  0.3509E+00  0.1584E+01
 -17.011  0.3518E+00  0.1588E+01
 -17.001  0.3528E+00  0.1591E+01
 -16.991  0.3538E+00  0.1595E+01
 -16.981  0.3548E+00  0.1598E+01
 -16.971  0.3558E+00  0.1602E+01
 -16.961  0.3568E+00  0.1605E+01
 -16.951  0.3578E+00  0.1609E+01
 -16.941  0.3589E+00  0.1612E+01
 -16.931  0.3606E+00  0.1616E+01
 -16.921  0.3622E+00  0.1620E+01
 -16.911  0.3639E+00  0.1623E+01
 -16.901  0.3656E+00  0.1627E+01
 -16.891  0.3676E+00  0.1631E+01
 -16.881  0.3709E+00  0.1634E+01
 -16.871  0.3743E+00  0.1638E+01
 -16.861  0.3776E+00  0.1642E+01
 -16.851  0.3809E+00  0.1646E+01
 -16.841  0.3843E+00  0.1649E+01
 -16.831  0.3876E+00  0.1653E+01
 -16.821  0.3909E+00  0.1657E+01
 -16.811  0.3943E+00  0.1661E+01
 -16.801  0.3976E+00  0.1665E+01
 -16.791  0.4009E+00  0.1669E+01
 -16.781  0.4043E+00  0.1673E+01
 -16.771  0.4076E+00  0.1677E+01
 -16.761  0.4109E+00  0.1681E+01
 -16.751  0.4143E+00  0.1685E+01
 -16.741  0.4184E+00  0.1690E+01
 -16.731  0.4235E+00  0.1694E+01
 -16.721  0.4285E+00  0.1698E+01
 -16.711  0.4336E+00  0.1702E+01
 -16.701  0.5853E+00  0.1708E+01
 -16.691  0.5613E+00  0.1714E+01
 -16.681  0.5373E+00  0.1719E+01
 -16.671  0.5133E+00  0.1725E+01
 -16.661  0.4894E+00  0.1730E+01
 -16.651  0.4655E+00  0.1734E+01
 -16.641  0.4416E+00  0.1739E+01
 -16.631  0.4177E+00  0.1743E+01
 -16.621  0.3938E+00  0.1747E+01
 -16.611  0.6531E+00  0.1752E+01
 -16.601  0.5672E+00  0.1758E+01
 -16.591  0.4813E+00  0.1763E+01
 -16.581  0.3958E+00  0.1767E+01
 -16.571  0.3253E+00  0.1771E+01
 -16.561  0.3209E+00  0.1774E+01
 -16.551  0.3165E+00  0.1777E+01
 -16.541  0.3122E+00  0.1780E+01
 -16.531  0.3078E+00  0.1784E+01
 -16.521  0.3034E+00  0.1787E+01
 -16.511  0.2991E+00  0.1790E+01
 -16.501  0.2947E+00  0.1793E+01
 -16.491  0.2928E+00  0.1796E+01
 -16.481  0.2909E+00  0.1798E+01
 -16.471  0.2891E+00  0.1801E+01
 -16.461  0.2872E+00  0.1804E+01
 -16.451  0.2854E+00  0.1807E+01
 -16.441  0.2835E+00  0.1810E+01
 -16.431  0.2817E+00  0.1813E+01
 -16.421  0.1076E+01  0.1819E+01
 -16.411  0.2644E+00  0.1823E+01
 -16.401  0.2610E+00  0.1825E+01
 -16.391  0.2576E+00  0.1828E+01
 -16.381  0.2542E+00  0.1830E+01
 -16.371  0.2507E+00  0.1833E+01
 -16.361  0.2473E+00  0.1835E+01
 -16.351  0.2439E+00  0.1838E+01
 -16.341  0.2405E+00  0.1840E+01
 -16.331  0.2370E+00  0.1843E+01
 -16.321  0.2336E+00  0.1845E+01
 -16.311  0.2302E+00  0.1847E+01
 -16.301  0.2268E+00  0.1850E+01
 -16.291  0.2233E+00  0.1852E+01
 -16.281  0.2199E+00  0.1854E+01
 -16.271  0.2165E+00  0.1856E+01
 -16.261  0.2130E+00  0.1858E+01
 -16.251  0.2096E+00  0.1861E+01
 -16.241  0.2062E+00  0.1863E+01
 -16.231  0.2028E+00  0.1865E+01
 -16.221  0.2000E+00  0.1867E+01
 -16.211  0.1972E+00  0.1869E+01
 -16.201  0.1944E+00  0.1871E+01
 -16.191  0.1939E+00  0.1873E+01
 -16.181  0.2118E+00  0.1875E+01
 -16.171  0.2296E+00  0.1877E+01
 -16.161  0.2475E+00  0.1879E+01
 -16.151  0.2716E+00  0.1882E+01
 -16.141  0.2961E+00  0.1885E+01
 -16.131  0.1985E+00  0.1888E+01
 -16.121  0.1960E+00  0.1890E+01
 -16.111  0.1934E+00  0.1892E+01
 -16.101  0.1909E+00  0.1893E+01
 -16.091  0.1883E+00  0.1895E+01
 -16.081  0.1858E+00  0.1897E+01
 -16.071  0.1832E+00  0.1899E+01
 -16.061  0.1807E+00  0.1901E+01
 -16.051  0.1781E+00  0.1903E+01
 -16.041  0.1756E+00  0.1904E+01
 -16.031  0.1730E+00  0.1906E+01
 -16.021  0.1705E+00  0.1908E+01
 -16.011  0.1680E+00  0.1910E+01
 -16.001  0.1654E+00  0.1911E+01
 -15.991  0.1629E+00  0.1913E+01
 -15.981  0.1603E+00  0.1915E+01
 -15.971  0.1578E+00  0.1916E+01
 -15.961  0.1552E+00  0.1918E+01
 -15.951  0.1527E+00  0.1919E+01
 -15.941  0.1501E+00  0.1921E+01
 -15.931  0.1476E+00  0.1922E+01
 -15.921  0.1451E+00  0.1924E+01
 -15.911  0.1425E+00  0.1925E+01
 -15.901  0.1400E+00  0.1927E+01
 -15.891  0.1374E+00  0.1928E+01
 -15.881  0.1349E+00  0.1929E+01
 -15.871  0.1323E+00  0.1931E+01
 -15.861  0.1298E+00  0.1932E+01
 -15.851  0.1318E+00  0.1933E+01
 -15.841  0.1350E+00  0.1935E+01
 -15.831  0.1381E+00  0.1936E+01
 -15.821  0.1413E+00  0.1937E+01
 -15.811  0.1444E+00  0.1939E+01
 -15.801  0.1476E+00  0.1940E+01
 -15.791  0.1507E+00  0.1942E+01
 -15.781  0.1539E+00  0.1943E+01
 -15.771  0.1570E+00  0.1945E+01
 -15.761  0.1678E+00  0.1946E+01
 -15.751  0.1817E+00  0.1948E+01
 -15.741  0.1451E+00  0.1950E+01
 -15.731  0.1667E+00  0.1951E+01
 -15.721  0.1755E+00  0.1953E+01
 -15.711  0.2073E+00  0.1955E+01
 -15.701  0.2487E+00  0.1957E+01
 -15.691  0.2901E+00  0.1960E+01
 -15.681  0.3315E+00  0.1963E+01
 -15.671  0.3729E+00  0.1966E+01
 -15.661  0.4143E+00  0.1970E+01
 -15.651  0.4556E+00  0.1975E+01
 -15.641  0.2638E+00  0.1978E+01
 -15.631  0.2669E+00  0.1981E+01
 -15.621  0.2699E+00  0.1983E+01
 -15.611  0.2729E+00  0.1986E+01
 -15.601  0.2759E+00  0.1989E+01
 -15.591  0.2790E+00  0.1991E+01
 -15.581  0.2820E+00  0.1994E+01
 -15.571  0.2850E+00  0.1997E+01
 -15.561  0.5146E+00  0.2001E+01
 -15.551  0.7688E+00  0.2007E+01
 -15.541  0.2997E+00  0.2011E+01
 -15.531  0.2993E+00  0.2014E+01
 -15.521  0.2989E+00  0.2017E+01
 -15.511  0.2985E+00  0.2020E+01
 -15.501  0.2981E+00  0.2023E+01
 -15.491  0.2977E+00  0.2026E+01
 -15.481  0.2973E+00  0.2029E+01
 -15.471  0.2970E+00  0.2032E+01
 -15.461  0.2966E+00  0.2035E+01
 -15.451  0.2962E+00  0.2038E+01
 -15.441  0.2958E+00  0.2041E+01
 -15.431  0.2956E+00  0.2044E+01
 -15.421  0.2983E+00  0.2047E+01
 -15.411  0.3014E+00  0.2050E+01
 -15.401  0.3047E+00  0.2053E+01
 -15.391  0.3080E+00  0.2056E+01
 -15.381  0.3114E+00  0.2059E+01
 -15.371  0.3147E+00  0.2062E+01
 -15.361  0.3192E+00  0.2065E+01
 -15.351  0.5557E+00  0.2070E+01
 -15.341  0.4367E+00  0.2075E+01
 -15.331  0.3282E+00  0.2079E+01
 -15.321  0.3301E+00  0.2082E+01
 -15.311  0.3320E+00  0.2086E+01
 -15.301  0.3339E+00  0.2089E+01
 -15.291  0.3359E+00  0.2092E+01
 -15.281  0.2992E+00  0.2095E+01
 -15.271  0.2987E+00  0.2098E+01
 -15.261  0.2982E+00  0.2101E+01
 -15.251  0.2977E+00  0.2104E+01
 -15.241  0.2972E+00  0.2107E+01
 -15.231  0.2966E+00  0.2110E+01
 -15.221  0.2972E+00  0.2113E+01
 -15.211  0.2984E+00  0.2116E+01
 -15.201  0.2995E+00  0.2119E+01
 -15.191  0.3007E+00  0.2122E+01
 -15.181  0.3019E+00  0.2125E+01
 -15.171  0.3031E+00  0.2128E+01
 -15.161  0.3042E+00  0.2131E+01
 -15.151  0.3054E+00  0.2134E+01
 -15.141  0.3066E+00  0.2137E+01
 -15.131  0.3078E+00  0.2141E+01
 -15.121  0.3089E+00  0.2144E+01
 -15.111  0.3101E+00  0.2147E+01
 -15.101  0.3115E+00  0.2150E+01
 -15.091  0.3128E+00  0.2153E+01
 -15.081  0.4270E+00  0.2157E+01
 -15.071  0.4040E+00  0.2161E+01
 -15.061  0.3811E+00  0.2165E+01
 -15.051  0.3582E+00  0.2168E+01
 -15.041  0.3353E+00  0.2172E+01
 -15.031  0.3124E+00  0.2175E+01
 -15.021  0.3035E+00  0.2178E+01
 -15.011  0.3023E+00  0.2181E+01
 -15.001  0.3011E+00  0.2184E+01
 -14.991  0.3019E+00  0.2187E+01
 -14.981  0.3031E+00  0.2190E+01
 -14.971  0.3043E+00  0.2193E+01
 -14.961  0.3055E+00  0.2196E+01
 -14.951  0.3067E+00  0.2199E+01
 -14.941  0.3080E+00  0.2202E+01
 -14.931  0.3092E+00  0.2206E+01
 -14.921  0.3104E+00  0.2209E+01
 -14.911  0.3117E+00  0.2212E+01
 -14.901  0.3167E+00  0.2215E+01
 -14.891  0.3218E+00  0.2218E+01
 -14.881  0.3268E+00  0.2221E+01
 -14.871  0.3319E+00  0.2225E+01
 -14.861  0.3369E+00  0.2228E+01
 -14.851  0.3420E+00  0.2231E+01
 -14.841  0.3470E+00  0.2235E+01
 -14.831  0.3522E+00  0.2238E+01
 -14.821  0.3575E+00  0.2242E+01
 -14.811  0.3628E+00  0.2245E+01
 -14.801  0.3681E+00  0.2249E+01
 -14.791  0.3735E+00  0.2253E+01
 -14.781  0.3788E+00  0.2257E+01
 -14.771  0.6403E+00  0.2262E+01
 -14.761  0.5158E+00  0.2268E+01
 -14.751  0.4036E+00  0.2272E+01
 -14.741  0.4150E+00  0.2277E+01
 -14.731  0.4264E+00  0.2281E+01
 -14.721  0.4377E+00  0.2285E+01
 -14.711  0.4491E+00  0.2289E+01
 -14.701  0.4627E+00  0.2294E+01
 -14.691  0.4769E+00  0.2299E+01
 -14.681  0.4911E+00  0.2304E+01
 -14.671  0.5053E+00  0.2309E+01
 -14.661  0.5196E+00  0.2314E+01
 -14.651  0.5338E+00  0.2319E+01
 -14.641  0.4229E+00  0.2324E+01
 -14.631  0.4200E+00  0.2329E+01
 -14.621  0.4172E+00  0.2333E+01
 -14.611  0.4143E+00  0.2337E+01
 -14.601  0.4115E+00  0.2341E+01
 -14.591  0.4087E+00  0.2345E+01
 -14.581  0.4060E+00  0.2349E+01
 -14.571  0.4034E+00  0.2353E+01
 -14.561  0.4009E+00  0.2357E+01
 -14.551  0.3983E+00  0.2361E+01
 -14.541  0.3958E+00  0.2365E+01
 -14.531  0.3933E+00  0.2369E+01
 -14.521  0.3907E+00  0.2373E+01
 -14.511  0.3882E+00  0.2377E+01
 -14.501  0.3856E+00  0.2381E+01
 -14.491  0.3831E+00  0.2385E+01
 -14.481  0.3806E+00  0.2389E+01
 -14.471  0.3780E+00  0.2392E+01
 -14.461  0.3755E+00  0.2396E+01
 -14.451  0.3734E+00  0.2400E+01
 -14.441  0.3714E+00  0.2404E+01
 -14.431  0.3694E+00  0.2407E+01
 -14.421  0.3674E+00  0.2411E+01
 -14.411  0.3655E+00  0.2415E+01
 -14.401  0.3635E+00  0.2418E+01
 -14.391  0.3616E+00  0.2422E+01
 -14.381  0.3597E+00  0.2425E+01
 -14.371  0.3577E+00  0.2429E+01
 -14.361  0.3558E+00  0.2433E+01
 -14.351  0.3539E+00  0.2436E+01
 -14.341  0.3520E+00  0.2440E+01
 -14.331  0.3500E+00  0.2443E+01
 -14.321  0.3481E+00  0.2447E+01
 -14.311  0.3462E+00  0.2450E+01
 -14.301  0.3442E+00  0.2454E+01
 -14.291  0.3432E+00  0.2457E+01
 -14.281  0.3425E+00  0.2461E+01
 -14.271  0.3418E+00  0.2464E+01
 -14.261  0.3411E+00  0.2467E+01
 -14.251  0.3405E+00  0.2471E+01
 -14.241  0.3398E+00  0.2474E+01
 -14.231  0.3391E+00  0.2478E+01
 -14.221  0.3384E+00  0.2481E+01
 -14.211  0.3377E+00  0.2484E+01
 -14.201  0.3370E+00  0.2488E+01
 -14.191  0.3363E+00  0.2491E+01
 -14.181  0.3357E+00  0.2494E+01
 -14.171  0.3350E+00  0.2498E+01
 -14.161  0.3343E+00  0.2501E+01
 -14.151  0.3336E+00  0.2504E+01
 -14.141  0.3329E+00  0.2508E+01
 -14.131  0.3322E+00  0.2511E+01
 -14.121  0.3314E+00  0.2514E+01
 -14.111  0.3307E+00  0.2518E+01
 -14.101  0.3300E+00  0.2521E+01
 -14.091  0.3292E+00  0.2524E+01
 -14.081  0.3285E+00  0.2528E+01
 -14.071  0.3278E+00  0.2531E+01
 -14.061  0.3271E+00  0.2534E+01
 -14.051  0.3264E+00  0.2537E+01
 -14.041  0.3257E+00  0.2541E+01
 -14.031  0.3249E+00  0.2544E+01
 -14.021  0.3242E+00  0.2547E+01
 -14.011  0.3235E+00  0.2550E+01
 -14.001  0.3138E+00  0.2554E+01
 -13.991  0.3135E+00  0.2557E+01
 -13.981  0.3132E+00  0.2560E+01
 -13.971  0.3129E+00  0.2563E+01
 -13.961  0.3126E+00  0.2566E+01
 -13.951  0.3123E+00  0.2569E+01
 -13.941  0.3119E+00  0.2572E+01
 -13.931  0.3116E+00  0.2576E+01
 -13.921  0.3113E+00  0.2579E+01
 -13.911  0.3110E+00  0.2582E+01
 -13.901  0.3107E+00  0.2585E+01
 -13.891  0.3104E+00  0.2588E+01
 -13.881  0.3100E+00  0.2591E+01
 -13.871  0.3097E+00  0.2594E+01
 -13.861  0.3094E+00  0.2597E+01
 -13.851  0.3091E+00  0.2600E+01
 -13.841  0.3088E+00  0.2603E+01
 -13.831  0.3085E+00  0.2607E+01
 -13.821  0.3081E+00  0.2610E+01
 -13.811  0.3078E+00  0.2613E+01
 -13.801  0.3075E+00  0.2616E+01
 -13.791  0.3072E+00  0.2619E+01
 -13.781  0.3069E+00  0.2622E+01
 -13.771  0.3064E+00  0.2625E+01
 -13.761  0.3054E+00  0.2628E+01
 -13.751  0.3044E+00  0.2631E+01
 -13.741  0.3034E+00  0.2634E+01
 -13.731  0.3024E+00  0.2637E+01
 -13.721  0.3015E+00  0.2640E+01
 -13.711  0.3005E+00  0.2643E+01
 -13.701  0.2995E+00  0.2646E+01
 -13.691  0.2985E+00  0.2649E+01
 -13.681  0.2976E+00  0.2652E+01
 -13.671  0.2966E+00  0.2655E+01
 -13.661  0.2956E+00  0.2658E+01
 -13.651  0.2946E+00  0.2661E+01
 -13.641  0.2937E+00  0.2664E+01
 -13.631  0.2927E+00  0.2667E+01
 -13.621  0.2917E+00  0.2670E+01
 -13.611  0.2907E+00  0.2673E+01
 -13.601  0.2898E+00  0.2676E+01
 -13.591  0.2891E+00  0.2679E+01
 -13.581  0.2890E+00  0.2681E+01
 -13.571  0.2888E+00  0.2684E+01
 -13.561  0.2886E+00  0.2687E+01
 -13.551  0.2882E+00  0.2690E+01
 -13.541  0.2878E+00  0.2693E+01
 -13.531  0.2874E+00  0.2696E+01
 -13.521  0.2870E+00  0.2699E+01
 -13.511  0.2866E+00  0.2702E+01
 -13.501  0.2863E+00  0.2704E+01
 -13.491  0.2859E+00  0.2707E+01
 -13.481  0.2855E+00  0.2710E+01
 -13.471  0.2851E+00  0.2713E+01
 -13.461  0.2847E+00  0.2716E+01
 -13.451  0.2843E+00  0.2719E+01
 -13.441  0.2839E+00  0.2722E+01
 -13.431  0.2835E+00  0.2724E+01
 -13.421  0.2831E+00  0.2727E+01
 -13.411  0.2827E+00  0.2730E+01
 -13.401  0.2823E+00  0.2733E+01
 -13.391  0.2819E+00  0.2736E+01
 -13.381  0.2815E+00  0.2739E+01
 -13.371  0.2811E+00  0.2741E+01
 -13.361  0.2807E+00  0.2744E+01
 -13.351  0.2803E+00  0.2747E+01
 -13.341  0.2799E+00  0.2750E+01
 -13.331  0.2794E+00  0.2753E+01
 -13.321  0.2790E+00  0.2755E+01
 -13.311  0.2785E+00  0.2758E+01
 -13.301  0.2780E+00  0.2761E+01
 -13.291  0.2775E+00  0.2764E+01
 -13.281  0.2770E+00  0.2766E+01
 -13.271  0.2766E+00  0.2769E+01
 -13.261  0.2761E+00  0.2772E+01
 -13.251  0.2687E+00  0.2775E+01
 -13.241  0.2685E+00  0.2777E+01
 -13.231  0.2683E+00  0.2780E+01
 -13.221  0.2681E+00  0.2783E+01
 -13.211  0.2679E+00  0.2785E+01
 -13.201  0.2676E+00  0.2788E+01
 -13.191  0.2674E+00  0.2791E+01
 -13.181  0.2672E+00  0.2793E+01
 -13.171  0.2670E+00  0.2796E+01
 -13.161  0.2668E+00  0.2799E+01
 -13.151  0.2666E+00  0.2801E+01
 -13.141  0.2709E+00  0.2804E+01
 -13.131  0.2795E+00  0.2807E+01
 -13.121  0.2881E+00  0.2810E+01
 -13.111  0.2967E+00  0.2813E+01
 -13.101  0.3053E+00  0.2816E+01
 -13.091  0.3138E+00  0.2819E+01
 -13.081  0.3224E+00  0.2822E+01
 -13.071  0.3309E+00  0.2825E+01
 -13.061  0.3395E+00  0.2829E+01
 -13.051  0.3481E+00  0.2832E+01
 -13.041  0.3566E+00  0.2836E+01
 -13.031  0.3652E+00  0.2839E+01
 -13.021  0.3737E+00  0.2843E+01
 -13.011  0.3823E+00  0.2847E+01
 -13.001  0.3430E+00  0.2850E+01
 -12.991  0.3433E+00  0.2854E+01
 -12.981  0.3436E+00  0.2857E+01
 -12.971  0.3437E+00  0.2861E+01
 -12.961  0.3434E+00  0.2864E+01
 -12.951  0.3432E+00  0.2868E+01
 -12.941  0.3429E+00  0.2871E+01
 -12.931  0.3427E+00  0.2874E+01
 -12.921  0.3425E+00  0.2878E+01
 -12.911  0.3422E+00  0.2881E+01
 -12.901  0.3420E+00  0.2885E+01
 -12.891  0.3417E+00  0.2888E+01
 -12.881  0.3415E+00  0.2892E+01
 -12.871  0.3413E+00  0.2895E+01
 -12.861  0.3410E+00  0.2898E+01
 -12.851  0.3408E+00  0.2902E+01
 -12.841  0.3405E+00  0.2905E+01
 -12.831  0.3403E+00  0.2909E+01
 -12.821  0.3401E+00  0.2912E+01
 -12.811  0.3408E+00  0.2915E+01
 -12.801  0.3419E+00  0.2919E+01
 -12.791  0.3433E+00  0.2922E+01
 -12.781  0.3446E+00  0.2926E+01
 -12.771  0.3460E+00  0.2929E+01
 -12.761  0.3474E+00  0.2933E+01
 -12.751  0.3488E+00  0.2936E+01
 -12.741  0.3502E+00  0.2940E+01
 -12.731  0.3515E+00  0.2943E+01
 -12.721  0.3529E+00  0.2947E+01
 -12.711  0.3543E+00  0.2950E+01
 -12.701  0.3555E+00  0.2954E+01
 -12.691  0.3567E+00  0.2957E+01
 -12.681  0.3580E+00  0.2961E+01
 -12.671  0.3577E+00  0.2964E+01
 -12.661  0.3564E+00  0.2968E+01
 -12.651  0.3551E+00  0.2972E+01
 -12.641  0.3538E+00  0.2975E+01
 -12.631  0.3525E+00  0.2979E+01
 -12.621  0.3519E+00  0.2982E+01
 -12.611  0.3517E+00  0.2986E+01
 -12.601  0.3515E+00  0.2989E+01
 -12.591  0.3513E+00  0.2993E+01
 -12.581  0.3511E+00  0.2996E+01
 -12.571  0.3509E+00  0.3000E+01
 -12.561  0.3507E+00  0.3003E+01
 -12.551  0.3505E+00  0.3007E+01
 -12.541  0.3503E+00  0.3010E+01
 -12.531  0.3501E+00  0.3014E+01
 -12.521  0.3499E+00  0.3017E+01
 -12.511  0.3497E+00  0.3021E+01
 -12.501  0.3495E+00  0.3024E+01
 -12.491  0.3493E+00  0.3028E+01
 -12.481  0.3490E+00  0.3031E+01
 -12.471  0.3488E+00  0.3035E+01
 -12.461  0.3546E+00  0.3038E+01
 -12.451  0.3549E+00  0.3042E+01
 -12.441  0.3552E+00  0.3045E+01
 -12.431  0.3554E+00  0.3049E+01
 -12.421  0.3504E+00  0.3052E+01
 -12.411  0.3508E+00  0.3056E+01
 -12.401  0.3512E+00  0.3059E+01
 -12.391  0.3517E+00  0.3063E+01
 -12.381  0.3521E+00  0.3066E+01
 -12.371  0.3526E+00  0.3070E+01
 -12.361  0.3530E+00  0.3074E+01
 -12.351  0.3534E+00  0.3077E+01
 -12.341  0.3539E+00  0.3081E+01
 -12.331  0.3543E+00  0.3084E+01
 -12.321  0.3548E+00  0.3088E+01
 -12.311  0.3552E+00  0.3091E+01
 -12.301  0.3556E+00  0.3095E+01
 -12.291  0.3561E+00  0.3098E+01
 -12.281  0.3565E+00  0.3102E+01
 -12.271  0.3569E+00  0.3105E+01
 -12.261  0.3574E+00  0.3109E+01
 -12.251  0.3578E+00  0.3113E+01
 -12.241  0.3582E+00  0.3116E+01
 -12.231  0.3587E+00  0.3120E+01
 -12.221  0.3591E+00  0.3123E+01
 -12.211  0.3595E+00  0.3127E+01
 -12.201  0.3600E+00  0.3131E+01
 -12.191  0.3589E+00  0.3134E+01
 -12.181  0.3588E+00  0.3138E+01
 -12.171  0.3591E+00  0.3141E+01
 -12.161  0.3595E+00  0.3145E+01
 -12.151  0.3600E+00  0.3149E+01
 -12.141  0.3604E+00  0.3152E+01
 -12.131  0.3608E+00  0.3156E+01
 -12.121  0.3613E+00  0.3159E+01
 -12.111  0.3617E+00  0.3163E+01
 -12.101  0.3622E+00  0.3167E+01
 -12.091  0.3626E+00  0.3170E+01
 -12.081  0.3627E+00  0.3174E+01
 -12.071  0.3627E+00  0.3177E+01
 -12.061  0.3627E+00  0.3181E+01
 -12.051  0.3628E+00  0.3185E+01
 -12.041  0.3628E+00  0.3188E+01
 -12.031  0.3628E+00  0.3192E+01
 -12.021  0.3629E+00  0.3196E+01
 -12.011  0.3629E+00  0.3199E+01
 -12.001  0.3629E+00  0.3203E+01
 -11.991  0.3630E+00  0.3207E+01
 -11.981  0.3628E+00  0.3210E+01
 -11.971  0.3625E+00  0.3214E+01
 -11.961  0.3622E+00  0.3217E+01
 -11.951  0.3620E+00  0.3221E+01
 -11.941  0.3617E+00  0.3225E+01
 -11.931  0.3616E+00  0.3228E+01
 -11.921  0.3618E+00  0.3232E+01
 -11.911  0.3621E+00  0.3235E+01
 -11.901  0.3623E+00  0.3239E+01
 -11.891  0.3625E+00  0.3243E+01
 -11.881  0.3628E+00  0.3246E+01
 -11.871  0.3630E+00  0.3250E+01
 -11.861  0.3633E+00  0.3254E+01
 -11.851  0.3635E+00  0.3257E+01
 -11.841  0.3637E+00  0.3261E+01
 -11.831  0.3639E+00  0.3265E+01
 -11.821  0.3642E+00  0.3268E+01
 -11.811  0.3644E+00  0.3272E+01
 -11.801  0.3646E+00  0.3275E+01
 -11.791  0.3648E+00  0.3279E+01
 -11.781  0.3650E+00  0.3283E+01
 -11.771  0.3652E+00  0.3286E+01
 -11.761  0.3653E+00  0.3290E+01
 -11.751  0.3701E+00  0.3294E+01
 -11.741  0.3704E+00  0.3297E+01
 -11.731  0.3707E+00  0.3301E+01
 -11.721  0.3710E+00  0.3305E+01
 -11.711  0.3713E+00  0.3309E+01
 -11.701  0.3716E+00  0.3312E+01
 -11.691  0.3720E+00  0.3316E+01
 -11.681  0.3723E+00  0.3320E+01
 -11.671  0.3726E+00  0.3323E+01
 -11.661  0.3728E+00  0.3327E+01
 -11.651  0.3731E+00  0.3331E+01
 -11.641  0.3733E+00  0.3335E+01
 -11.631  0.3736E+00  0.3338E+01
 -11.621  0.3738E+00  0.3342E+01
 -11.611  0.3740E+00  0.3346E+01
 -11.601  0.3743E+00  0.3350E+01
 -11.591  0.3745E+00  0.3353E+01
 -11.581  0.3747E+00  0.3357E+01
 -11.571  0.3750E+00  0.3361E+01
 -11.561  0.3751E+00  0.3365E+01
 -11.551  0.3753E+00  0.3368E+01
 -11.541  0.3755E+00  0.3372E+01
 -11.531  0.3756E+00  0.3376E+01
 -11.521  0.3758E+00  0.3380E+01
 -11.511  0.3759E+00  0.3383E+01
 -11.501  0.3722E+00  0.3387E+01
 -11.491  0.3725E+00  0.3391E+01
 -11.481  0.3729E+00  0.3394E+01
 -11.471  0.3732E+00  0.3398E+01
 -11.461  0.3736E+00  0.3402E+01
 -11.451  0.3739E+00  0.3406E+01
 -11.441  0.3742E+00  0.3409E+01
 -11.431  0.3744E+00  0.3413E+01
 -11.421  0.3746E+00  0.3417E+01
 -11.411  0.3747E+00  0.3421E+01
 -11.401  0.3750E+00  0.3424E+01
 -11.391  0.3756E+00  0.3428E+01
 -11.381  0.3762E+00  0.3432E+01
 -11.371  0.3767E+00  0.3436E+01
 -11.361  0.3773E+00  0.3439E+01
 -11.351  0.3779E+00  0.3443E+01
 -11.341  0.3785E+00  0.3447E+01
 -11.331  0.3791E+00  0.3451E+01
 -11.321  0.3797E+00  0.3455E+01
 -11.311  0.3803E+00  0.3458E+01
 -11.301  0.3809E+00  0.3462E+01
 -11.291  0.3815E+00  0.3466E+01
 -11.281  0.3820E+00  0.3470E+01
 -11.271  0.3826E+00  0.3474E+01
 -11.261  0.3832E+00  0.3477E+01
 -11.251  0.3838E+00  0.3481E+01
 -11.241  0.3844E+00  0.3485E+01
 -11.231  0.3850E+00  0.3489E+01
 -11.221  0.3853E+00  0.3493E+01
 -11.211  0.3855E+00  0.3497E+01
 -11.201  0.3858E+00  0.3501E+01
 -11.191  0.3860E+00  0.3504E+01
 -11.181  0.3863E+00  0.3508E+01
 -11.171  0.3866E+00  0.3512E+01
 -11.161  0.3868E+00  0.3516E+01
 -11.151  0.3870E+00  0.3520E+01
 -11.141  0.3873E+00  0.3524E+01
 -11.131  0.3875E+00  0.3528E+01
 -11.121  0.3883E+00  0.3532E+01
 -11.111  0.3884E+00  0.3535E+01
 -11.101  0.3886E+00  0.3539E+01
 -11.091  0.3887E+00  0.3543E+01
 -11.081  0.3889E+00  0.3547E+01
 -11.071  0.3888E+00  0.3551E+01
 -11.061  0.3888E+00  0.3555E+01
 -11.051  0.3888E+00  0.3559E+01
 -11.041  0.3887E+00  0.3563E+01
 -11.031  0.3887E+00  0.3567E+01
 -11.021  0.3887E+00  0.3570E+01
 -11.011  0.3887E+00  0.3574E+01
 -11.001  0.3886E+00  0.3578E+01
 -10.991  0.3886E+00  0.3582E+01
 -10.981  0.3889E+00  0.3586E+01
 -10.971  0.3892E+00  0.3590E+01
 -10.961  0.3895E+00  0.3594E+01
 -10.951  0.3899E+00  0.3598E+01
 -10.941  0.3902E+00  0.3602E+01
 -10.931  0.3944E+00  0.3605E+01
 -10.921  0.3949E+00  0.3609E+01
 -10.911  0.3954E+00  0.3613E+01
 -10.901  0.3959E+00  0.3617E+01
 -10.891  0.3964E+00  0.3621E+01
 -10.881  0.3969E+00  0.3625E+01
 -10.871  0.3974E+00  0.3629E+01
 -10.861  0.3979E+00  0.3633E+01
 -10.851  0.3984E+00  0.3637E+01
 -10.841  0.3989E+00  0.3641E+01
 -10.831  0.3993E+00  0.3645E+01
 -10.821  0.3997E+00  0.3649E+01
 -10.811  0.4001E+00  0.3653E+01
 -10.801  0.4005E+00  0.3657E+01
 -10.791  0.4009E+00  0.3661E+01
 -10.781  0.4013E+00  0.3665E+01
 -10.771  0.4017E+00  0.3669E+01
 -10.761  0.4020E+00  0.3673E+01
 -10.751  0.4023E+00  0.3677E+01
 -10.741  0.4026E+00  0.3681E+01
 -10.731  0.4028E+00  0.3685E+01
 -10.721  0.4031E+00  0.3689E+01
 -10.711  0.4034E+00  0.3693E+01
 -10.701  0.4037E+00  0.3697E+01
 -10.691  0.4039E+00  0.3701E+01
 -10.681  0.4042E+00  0.3705E+01
 -10.671  0.4045E+00  0.3709E+01
 -10.661  0.4047E+00  0.3714E+01
 -10.651  0.4049E+00  0.3718E+01
 -10.641  0.4051E+00  0.3722E+01
 -10.631  0.4052E+00  0.3726E+01
 -10.621  0.4053E+00  0.3730E+01
 -10.611  0.4055E+00  0.3734E+01
 -10.601  0.4057E+00  0.3738E+01
 -10.591  0.4072E+00  0.3742E+01
 -10.581  0.4087E+00  0.3746E+01
 -10.571  0.4093E+00  0.3750E+01
 -10.561  0.4098E+00  0.3754E+01
 -10.551  0.4104E+00  0.3758E+01
 -10.541  0.4113E+00  0.3762E+01
 -10.531  0.4123E+00  0.3767E+01
 -10.521  0.4102E+00  0.3771E+01
 -10.511  0.4112E+00  0.3775E+01
 -10.501  0.4122E+00  0.3779E+01
 -10.491  0.4131E+00  0.3783E+01
 -10.481  0.4140E+00  0.3787E+01
 -10.471  0.4150E+00  0.3791E+01
 -10.461  0.4159E+00  0.3795E+01
 -10.451  0.4168E+00  0.3800E+01
 -10.441  0.4178E+00  0.3804E+01
 -10.431  0.4187E+00  0.3808E+01
 -10.421  0.4197E+00  0.3812E+01
 -10.411  0.4206E+00  0.3816E+01
 -10.401  0.4213E+00  0.3821E+01
 -10.391  0.4219E+00  0.3825E+01
 -10.381  0.4223E+00  0.3829E+01
 -10.371  0.4228E+00  0.3833E+01
 -10.361  0.4232E+00  0.3837E+01
 -10.351  0.4237E+00  0.3842E+01
 -10.341  0.4241E+00  0.3846E+01
 -10.331  0.4246E+00  0.3850E+01
 -10.321  0.4250E+00  0.3854E+01
 -10.311  0.4254E+00  0.3859E+01
 -10.301  0.4259E+00  0.3863E+01
 -10.291  0.4263E+00  0.3867E+01
 -10.281  0.4268E+00  0.3871E+01
 -10.271  0.4272E+00  0.3876E+01
 -10.261  0.4277E+00  0.3880E+01
 -10.251  0.4281E+00  0.3884E+01
 -10.241  0.4284E+00  0.3889E+01
 -10.231  0.4288E+00  0.3893E+01
 -10.221  0.4292E+00  0.3897E+01
 -10.211  0.4295E+00  0.3901E+01
 -10.201  0.4299E+00  0.3906E+01
 -10.191  0.4303E+00  0.3910E+01
 -10.181  0.4307E+00  0.3914E+01
 -10.171  0.4310E+00  0.3919E+01
 -10.161  0.4386E+00  0.3923E+01
 -10.151  0.6155E+00  0.3928E+01
 -10.141  0.7924E+00  0.3935E+01
 -10.131  0.6459E+00  0.3942E+01
 -10.121  0.6610E+00  0.3949E+01
 -10.111  0.6761E+00  0.3955E+01
 -10.101  0.6909E+00  0.3962E+01
 -10.091  0.7030E+00  0.3969E+01
 -10.081  0.6860E+00  0.3976E+01
 -10.071  0.6689E+00  0.3983E+01
 -10.061  0.6757E+00  0.3990E+01
 -10.051  0.6820E+00  0.3996E+01
 -10.041  0.6879E+00  0.4003E+01
 -10.031  0.6937E+00  0.4010E+01
 -10.021  0.6996E+00  0.4017E+01
 -10.011  0.7055E+00  0.4024E+01
 -10.001  0.6911E+00  0.4031E+01
  -9.991  0.6906E+00  0.4038E+01
  -9.981  0.6903E+00  0.4045E+01
  -9.971  0.6901E+00  0.4052E+01
  -9.961  0.6899E+00  0.4059E+01
  -9.951  0.6914E+00  0.4066E+01
  -9.941  0.6949E+00  0.4073E+01
  -9.931  0.6984E+00  0.4080E+01
  -9.921  0.7019E+00  0.4087E+01
  -9.911  0.7054E+00  0.4094E+01
  -9.901  0.7089E+00  0.4101E+01
  -9.891  0.7124E+00  0.4108E+01
  -9.881  0.7100E+00  0.4115E+01
  -9.871  0.7040E+00  0.4122E+01
  -9.861  0.7006E+00  0.4129E+01
  -9.851  0.7019E+00  0.4136E+01
  -9.841  0.7031E+00  0.4143E+01
  -9.831  0.7044E+00  0.4150E+01
  -9.821  0.7056E+00  0.4157E+01
  -9.811  0.7067E+00  0.4164E+01
  -9.801  0.7078E+00  0.4171E+01
  -9.791  0.7095E+00  0.4178E+01
  -9.781  0.7117E+00  0.4185E+01
  -9.771  0.7139E+00  0.4193E+01
  -9.761  0.7161E+00  0.4200E+01
  -9.751  0.7183E+00  0.4207E+01
  -9.741  0.7206E+00  0.4214E+01
  -9.731  0.7228E+00  0.4221E+01
  -9.721  0.7159E+00  0.4228E+01
  -9.711  0.7153E+00  0.4236E+01
  -9.701  0.7146E+00  0.4243E+01
  -9.691  0.7138E+00  0.4250E+01
  -9.681  0.7133E+00  0.4257E+01
  -9.671  0.7144E+00  0.4264E+01
  -9.661  0.7155E+00  0.4271E+01
  -9.651  0.7165E+00  0.4279E+01
  -9.641  0.7213E+00  0.4286E+01
  -9.631  0.7271E+00  0.4293E+01
  -9.621  0.7304E+00  0.4300E+01
  -9.611  0.7333E+00  0.4308E+01
  -9.601  0.7361E+00  0.4315E+01
  -9.591  0.7390E+00  0.4322E+01
  -9.581  0.7423E+00  0.4330E+01
  -9.571  0.7457E+00  0.4337E+01
  -9.561  0.7484E+00  0.4345E+01
  -9.551  0.7511E+00  0.4352E+01
  -9.541  0.7514E+00  0.4360E+01
  -9.531  0.7499E+00  0.4367E+01
  -9.521  0.7493E+00  0.4375E+01
  -9.511  0.7504E+00  0.4382E+01
  -9.501  0.7516E+00  0.4390E+01
  -9.491  0.7504E+00  0.4397E+01
  -9.481  0.7516E+00  0.4405E+01
  -9.471  0.7528E+00  0.4412E+01
  -9.461  0.7538E+00  0.4420E+01
  -9.451  0.7551E+00  0.4427E+01
  -9.441  0.7568E+00  0.4435E+01
  -9.431  0.7585E+00  0.4442E+01
  -9.421  0.7602E+00  0.4450E+01
  -9.411  0.7619E+00  0.4458E+01
  -9.401  0.7636E+00  0.4465E+01
  -9.391  0.7653E+00  0.4473E+01
  -9.381  0.7670E+00  0.4481E+01
  -9.371  0.7687E+00  0.4488E+01
  -9.361  0.7704E+00  0.4496E+01
  -9.351  0.7721E+00  0.4504E+01
  -9.341  0.7738E+00  0.4511E+01
  -9.331  0.7756E+00  0.4519E+01
  -9.321  0.7775E+00  0.4527E+01
  -9.311  0.7745E+00  0.4535E+01
  -9.301  0.7750E+00  0.4542E+01
  -9.291  0.7756E+00  0.4550E+01
  -9.281  0.7771E+00  0.4558E+01
  -9.271  0.7791E+00  0.4566E+01
  -9.261  0.7901E+00  0.4573E+01
  -9.251  0.7967E+00  0.4581E+01
  -9.241  0.8033E+00  0.4589E+01
  -9.231  0.8098E+00  0.4597E+01
  -9.221  0.8159E+00  0.4606E+01
  -9.211  0.8203E+00  0.4614E+01
  -9.201  0.8247E+00  0.4622E+01
  -9.191  0.8291E+00  0.4630E+01
  -9.181  0.8336E+00  0.4639E+01
  -9.171  0.8384E+00  0.4647E+01
  -9.161  0.8431E+00  0.4655E+01
  -9.151  0.8504E+00  0.4664E+01
  -9.141  0.8548E+00  0.4672E+01
  -9.131  0.8588E+00  0.4681E+01
  -9.121  0.8629E+00  0.4689E+01
  -9.111  0.8669E+00  0.4698E+01
  -9.101  0.8709E+00  0.4707E+01
  -9.091  0.8749E+00  0.4716E+01
  -9.081  0.8790E+00  0.4724E+01
  -9.071  0.8823E+00  0.4733E+01
  -9.061  0.8840E+00  0.4742E+01
  -9.051  0.8862E+00  0.4751E+01
  -9.041  0.8982E+00  0.4760E+01
  -9.031  0.9104E+00  0.4769E+01
  -9.021  0.9222E+00  0.4778E+01
  -9.011  0.9339E+00  0.4787E+01
  -9.001  0.9457E+00  0.4797E+01
  -8.991  0.9575E+00  0.4806E+01
  -8.981  0.9862E+00  0.4816E+01
  -8.971  0.1049E+01  0.4826E+01
  -8.961  0.1126E+01  0.4837E+01
  -8.951  0.1199E+01  0.4848E+01
  -8.941  0.1262E+01  0.4861E+01
  -8.931  0.1260E+01  0.4873E+01
  -8.921  0.1229E+01  0.4886E+01
  -8.911  0.1171E+01  0.4898E+01
  -8.901  0.1098E+01  0.4909E+01
  -8.891  0.1023E+01  0.4920E+01
  -8.881  0.9474E+00  0.4930E+01
  -8.871  0.8907E+00  0.4939E+01
  -8.861  0.8897E+00  0.4948E+01
  -8.851  0.8887E+00  0.4957E+01
  -8.841  0.8876E+00  0.4966E+01
  -8.831  0.8866E+00  0.4974E+01
  -8.821  0.8855E+00  0.4983E+01
  -8.811  0.8845E+00  0.4992E+01
  -8.801  0.8833E+00  0.5001E+01
  -8.791  0.8809E+00  0.5010E+01
  -8.781  0.9045E+00  0.5019E+01
  -8.771  0.9235E+00  0.5028E+01
  -8.761  0.9426E+00  0.5037E+01
  -8.751  0.9616E+00  0.5047E+01
  -8.741  0.9617E+00  0.5056E+01
  -8.731  0.9760E+00  0.5066E+01
  -8.721  0.9241E+00  0.5076E+01
  -8.711  0.8120E+00  0.5084E+01
  -8.701  0.7645E+00  0.5092E+01
  -8.691  0.7585E+00  0.5100E+01
  -8.681  0.7523E+00  0.5107E+01
  -8.671  0.7461E+00  0.5115E+01
  -8.661  0.7193E+00  0.5122E+01
  -8.651  0.6958E+00  0.5129E+01
  -8.641  0.7805E+00  0.5137E+01
  -8.631  0.8603E+00  0.5145E+01
  -8.621  0.8959E+00  0.5154E+01
  -8.611  0.9314E+00  0.5163E+01
  -8.601  0.9669E+00  0.5172E+01
  -8.591  0.1002E+01  0.5182E+01
  -8.581  0.1038E+01  0.5192E+01
  -8.571  0.1073E+01  0.5203E+01
  -8.561  0.1109E+01  0.5214E+01
  -8.551  0.1064E+01  0.5225E+01
  -8.541  0.1013E+01  0.5235E+01
  -8.531  0.9627E+00  0.5245E+01
  -8.521  0.9122E+00  0.5254E+01
  -8.511  0.9096E+00  0.5263E+01
  -8.501  0.9141E+00  0.5273E+01
  -8.491  0.9179E+00  0.5282E+01
  -8.481  0.9217E+00  0.5291E+01
  -8.471  0.1026E+01  0.5300E+01
  -8.461  0.1356E+01  0.5312E+01
  -8.451  0.1606E+01  0.5327E+01
  -8.441  0.1302E+01  0.5342E+01
  -8.431  0.9207E+00  0.5353E+01
  -8.421  0.9086E+00  0.5362E+01
  -8.411  0.8921E+00  0.5371E+01
  -8.401  0.8810E+00  0.5380E+01
  -8.391  0.8732E+00  0.5388E+01
  -8.381  0.8676E+00  0.5397E+01
  -8.371  0.8637E+00  0.5406E+01
  -8.361  0.8598E+00  0.5414E+01
  -8.351  0.8559E+00  0.5423E+01
  -8.341  0.8520E+00  0.5432E+01
  -8.331  0.8481E+00  0.5440E+01
  -8.321  0.8443E+00  0.5448E+01
  -8.311  0.8404E+00  0.5457E+01
  -8.301  0.8365E+00  0.5465E+01
  -8.291  0.8322E+00  0.5474E+01
  -8.281  0.8277E+00  0.5482E+01
  -8.271  0.8234E+00  0.5490E+01
  -8.261  0.8191E+00  0.5498E+01
  -8.251  0.8137E+00  0.5507E+01
  -8.241  0.7443E+00  0.5514E+01
  -8.231  0.7316E+00  0.5522E+01
  -8.221  0.7203E+00  0.5529E+01
  -8.211  0.7115E+00  0.5536E+01
  -8.201  0.7030E+00  0.5543E+01
  -8.191  0.6945E+00  0.5550E+01
  -8.181  0.6862E+00  0.5557E+01
  -8.171  0.6779E+00  0.5564E+01
  -8.161  0.6697E+00  0.5571E+01
  -8.151  0.6614E+00  0.5577E+01
  -8.141  0.6531E+00  0.5584E+01
  -8.131  0.6449E+00  0.5590E+01
  -8.121  0.6982E+00  0.5597E+01
  -8.111  0.7146E+00  0.5604E+01
  -8.101  0.7305E+00  0.5611E+01
  -8.091  0.7447E+00  0.5619E+01
  -8.081  0.7589E+00  0.5626E+01
  -8.071  0.7567E+00  0.5634E+01
  -8.061  0.7530E+00  0.5641E+01
  -8.051  0.7481E+00  0.5649E+01
  -8.041  0.7429E+00  0.5656E+01
  -8.031  0.7377E+00  0.5664E+01
  -8.021  0.7326E+00  0.5671E+01
  -8.011  0.7274E+00  0.5678E+01
  -8.001  0.7231E+00  0.5686E+01
  -7.991  0.7198E+00  0.5693E+01
  -7.981  0.7166E+00  0.5700E+01
  -7.971  0.7132E+00  0.5707E+01
  -7.961  0.7098E+00  0.5714E+01
  -7.951  0.7064E+00  0.5721E+01
  -7.941  0.7031E+00  0.5728E+01
  -7.931  0.7008E+00  0.5735E+01
  -7.921  0.7060E+00  0.5742E+01
  -7.911  0.7116E+00  0.5749E+01
  -7.901  0.7172E+00  0.5757E+01
  -7.891  0.7227E+00  0.5764E+01
  -7.881  0.7283E+00  0.5771E+01
  -7.871  0.7341E+00  0.5778E+01
  -7.861  0.7381E+00  0.5786E+01
  -7.851  0.7406E+00  0.5793E+01
  -7.841  0.7431E+00  0.5801E+01
  -7.831  0.7456E+00  0.5808E+01
  -7.821  0.7323E+00  0.5815E+01
  -7.811  0.6959E+00  0.5823E+01
  -7.801  0.6597E+00  0.5829E+01
  -7.791  0.6264E+00  0.5836E+01
  -7.781  0.5932E+00  0.5842E+01
  -7.771  0.5599E+00  0.5848E+01
  -7.761  0.5266E+00  0.5853E+01
  -7.751  0.5312E+00  0.5858E+01
  -7.741  0.5421E+00  0.5864E+01
  -7.731  0.5530E+00  0.5869E+01
  -7.721  0.5645E+00  0.5875E+01
  -7.711  0.5760E+00  0.5880E+01
  -7.701  0.5875E+00  0.5886E+01
  -7.691  0.6001E+00  0.5892E+01
  -7.681  0.6136E+00  0.5898E+01
  -7.671  0.6270E+00  0.5904E+01
  -7.661  0.6396E+00  0.5911E+01
  -7.651  0.6522E+00  0.5917E+01
  -7.641  0.6647E+00  0.5924E+01
  -7.631  0.6773E+00  0.5931E+01
  -7.621  0.6899E+00  0.5937E+01
  -7.611  0.7025E+00  0.5944E+01
  -7.601  0.7151E+00  0.5951E+01
  -7.591  0.7277E+00  0.5959E+01
  -7.581  0.7403E+00  0.5966E+01
  -7.571  0.7530E+00  0.5973E+01
  -7.561  0.7526E+00  0.5981E+01
  -7.551  0.7382E+00  0.5988E+01
  -7.541  0.7239E+00  0.5996E+01
  -7.531  0.7095E+00  0.6003E+01
  -7.521  0.6952E+00  0.6010E+01
  -7.511  0.6808E+00  0.6017E+01
  -7.501  0.6659E+00  0.6024E+01
  -7.491  0.6511E+00  0.6030E+01
  -7.481  0.6430E+00  0.6037E+01
  -7.471  0.6411E+00  0.6043E+01
  -7.461  0.6393E+00  0.6049E+01
  -7.451  0.6375E+00  0.6056E+01
  -7.441  0.6357E+00  0.6062E+01
  -7.431  0.6339E+00  0.6069E+01
  -7.421  0.6321E+00  0.6075E+01
  -7.411  0.6310E+00  0.6081E+01
  -7.401  0.6300E+00  0.6088E+01
  -7.391  0.6279E+00  0.6094E+01
  -7.381  0.6269E+00  0.6100E+01
  -7.371  0.6285E+00  0.6106E+01
  -7.361  0.6279E+00  0.6113E+01
  -7.351  0.6274E+00  0.6119E+01
  -7.341  0.6257E+00  0.6125E+01
  -7.331  0.6247E+00  0.6131E+01
  -7.321  0.6238E+00  0.6138E+01
  -7.311  0.6228E+00  0.6144E+01
  -7.301  0.6220E+00  0.6150E+01
  -7.291  0.6212E+00  0.6156E+01
  -7.281  0.6204E+00  0.6163E+01
  -7.271  0.6193E+00  0.6169E+01
  -7.261  0.6183E+00  0.6175E+01
  -7.251  0.6173E+00  0.6181E+01
  -7.241  0.6162E+00  0.6187E+01
  -7.231  0.6152E+00  0.6193E+01
  -7.221  0.6142E+00  0.6200E+01
  -7.211  0.6133E+00  0.6206E+01
  -7.201  0.6123E+00  0.6212E+01
  -7.191  0.6111E+00  0.6218E+01
  -7.181  0.6101E+00  0.6224E+01
  -7.171  0.6091E+00  0.6230E+01
  -7.161  0.6082E+00  0.6236E+01
  -7.151  0.6072E+00  0.6242E+01
  -7.141  0.6063E+00  0.6248E+01
  -7.131  0.6053E+00  0.6254E+01
  -7.121  0.6044E+00  0.6261E+01
  -7.111  0.6034E+00  0.6267E+01
  -7.101  0.6025E+00  0.6273E+01
  -7.091  0.6016E+00  0.6279E+01
  -7.081  0.6007E+00  0.6285E+01
  -7.071  0.5998E+00  0.6291E+01
  -7.061  0.5988E+00  0.6297E+01
  -7.051  0.5979E+00  0.6303E+01
  -7.041  0.5970E+00  0.6309E+01
  -7.031  0.5961E+00  0.6315E+01
  -7.021  0.5952E+00  0.6320E+01
  -7.011  0.5943E+00  0.6326E+01
  -7.001  0.5934E+00  0.6332E+01
  -6.991  0.5925E+00  0.6338E+01
  -6.981  0.5916E+00  0.6344E+01
  -6.971  0.5908E+00  0.6350E+01
  -6.961  0.5913E+00  0.6356E+01
  -6.951  0.5917E+00  0.6362E+01
  -6.941  0.5921E+00  0.6368E+01
  -6.931  0.5921E+00  0.6374E+01
  -6.921  0.5913E+00  0.6380E+01
  -6.911  0.5902E+00  0.6386E+01
  -6.901  0.5894E+00  0.6392E+01
  -6.891  0.5887E+00  0.6397E+01
  -6.881  0.5882E+00  0.6403E+01
  -6.871  0.5880E+00  0.6409E+01
  -6.861  0.5870E+00  0.6415E+01
  -6.851  0.5859E+00  0.6421E+01
  -6.841  0.5850E+00  0.6427E+01
  -6.831  0.5841E+00  0.6433E+01
  -6.821  0.5832E+00  0.6438E+01
  -6.811  0.5822E+00  0.6444E+01
  -6.801  0.5813E+00  0.6450E+01
  -6.791  0.5804E+00  0.6456E+01
  -6.781  0.5795E+00  0.6462E+01
  -6.771  0.5786E+00  0.6467E+01
  -6.761  0.5776E+00  0.6473E+01
  -6.751  0.5767E+00  0.6479E+01
  -6.741  0.5759E+00  0.6485E+01
  -6.731  0.5750E+00  0.6491E+01
  -6.721  0.5742E+00  0.6496E+01
  -6.711  0.5733E+00  0.6502E+01
  -6.701  0.5725E+00  0.6508E+01
  -6.691  0.5717E+00  0.6514E+01
  -6.681  0.5708E+00  0.6519E+01
  -6.671  0.5700E+00  0.6525E+01
  -6.661  0.5692E+00  0.6531E+01
  -6.651  0.5684E+00  0.6536E+01
  -6.641  0.5677E+00  0.6542E+01
  -6.631  0.5669E+00  0.6548E+01
  -6.621  0.5662E+00  0.6553E+01
  -6.611  0.5655E+00  0.6559E+01
  -6.601  0.5647E+00  0.6565E+01
  -6.591  0.5640E+00  0.6570E+01
  -6.581  0.5633E+00  0.6576E+01
  -6.571  0.5668E+00  0.6582E+01
  -6.561  0.5680E+00  0.6587E+01
  -6.551  0.5707E+00  0.6593E+01
  -6.541  0.5705E+00  0.6599E+01
  -6.531  0.5697E+00  0.6604E+01
  -6.521  0.5689E+00  0.6610E+01
  -6.511  0.5681E+00  0.6616E+01
  -6.501  0.5673E+00  0.6621E+01
  -6.491  0.5666E+00  0.6627E+01
  -6.481  0.5658E+00  0.6633E+01
  -6.471  0.5645E+00  0.6638E+01
  -6.461  0.5635E+00  0.6644E+01
  -6.451  0.5624E+00  0.6650E+01
  -6.441  0.5614E+00  0.6655E+01
  -6.431  0.5605E+00  0.6661E+01
  -6.421  0.5596E+00  0.6666E+01
  -6.411  0.5587E+00  0.6672E+01
  -6.401  0.5578E+00  0.6678E+01
  -6.391  0.5569E+00  0.6683E+01
  -6.381  0.5560E+00  0.6689E+01
  -6.371  0.5551E+00  0.6694E+01
  -6.361  0.5542E+00  0.6700E+01
  -6.351  0.5534E+00  0.6705E+01
  -6.341  0.5527E+00  0.6711E+01
  -6.331  0.5520E+00  0.6716E+01
  -6.321  0.5513E+00  0.6722E+01
  -6.311  0.5506E+00  0.6728E+01
  -6.301  0.5500E+00  0.6733E+01
  -6.291  0.5493E+00  0.6739E+01
  -6.281  0.5486E+00  0.6744E+01
  -6.271  0.5480E+00  0.6749E+01
  -6.261  0.5473E+00  0.6755E+01
  -6.251  0.5467E+00  0.6760E+01
  -6.241  0.5470E+00  0.6766E+01
  -6.231  0.5483E+00  0.6771E+01
  -6.221  0.5560E+00  0.6777E+01
  -6.211  0.5552E+00  0.6782E+01
  -6.201  0.5544E+00  0.6788E+01
  -6.191  0.5536E+00  0.6794E+01
  -6.181  0.5528E+00  0.6799E+01
  -6.171  0.5521E+00  0.6805E+01
  -6.161  0.5513E+00  0.6810E+01
  -6.151  0.5505E+00  0.6816E+01
  -6.141  0.5497E+00  0.6821E+01
  -6.131  0.5489E+00  0.6827E+01
  -6.121  0.5481E+00  0.6832E+01
  -6.111  0.5473E+00  0.6838E+01
  -6.101  0.5466E+00  0.6843E+01
  -6.091  0.5458E+00  0.6849E+01
  -6.081  0.5451E+00  0.6854E+01
  -6.071  0.5445E+00  0.6859E+01
  -6.061  0.5440E+00  0.6865E+01
  -6.051  0.5434E+00  0.6870E+01
  -6.041  0.5430E+00  0.6876E+01
  -6.031  0.5427E+00  0.6881E+01
  -6.021  0.5425E+00  0.6887E+01
  -6.011  0.5423E+00  0.6892E+01
  -6.001  0.5419E+00  0.6897E+01
  -5.991  0.5411E+00  0.6903E+01
  -5.981  0.5404E+00  0.6908E+01
  -5.971  0.5397E+00  0.6914E+01
  -5.961  0.5391E+00  0.6919E+01
  -5.951  0.5384E+00  0.6924E+01
  -5.941  0.5384E+00  0.6930E+01
  -5.931  0.5404E+00  0.6935E+01
  -5.921  0.5425E+00  0.6941E+01
  -5.911  0.5474E+00  0.6946E+01
  -5.901  0.5465E+00  0.6952E+01
  -5.891  0.5455E+00  0.6957E+01
  -5.881  0.5446E+00  0.6962E+01
  -5.871  0.5436E+00  0.6968E+01
  -5.861  0.5426E+00  0.6973E+01
  -5.851  0.5417E+00  0.6979E+01
  -5.841  0.5408E+00  0.6984E+01
  -5.831  0.5399E+00  0.6990E+01
  -5.821  0.5390E+00  0.6995E+01
  -5.811  0.5381E+00  0.7000E+01
  -5.801  0.5374E+00  0.7006E+01
  -5.791  0.5367E+00  0.7011E+01
  -5.781  0.5360E+00  0.7016E+01
  -5.771  0.5352E+00  0.7022E+01
  -5.761  0.5345E+00  0.7027E+01
  -5.751  0.5342E+00  0.7033E+01
  -5.741  0.5342E+00  0.7038E+01
  -5.731  0.5341E+00  0.7043E+01
  -5.721  0.5341E+00  0.7049E+01
  -5.711  0.5342E+00  0.7054E+01
  -5.701  0.5342E+00  0.7059E+01
  -5.691  0.5342E+00  0.7065E+01
  -5.681  0.5342E+00  0.7070E+01
  -5.671  0.5342E+00  0.7075E+01
  -5.661  0.5428E+00  0.7081E+01
  -5.651  0.5481E+00  0.7086E+01
  -5.641  0.5478E+00  0.7092E+01
  -5.631  0.5465E+00  0.7097E+01
  -5.621  0.5452E+00  0.7103E+01
  -5.611  0.5439E+00  0.7108E+01
  -5.601  0.5427E+00  0.7113E+01
  -5.591  0.5414E+00  0.7119E+01
  -5.581  0.5402E+00  0.7124E+01
  -5.571  0.5389E+00  0.7130E+01
  -5.561  0.5377E+00  0.7135E+01
  -5.551  0.5365E+00  0.7140E+01
  -5.541  0.5352E+00  0.7146E+01
  -5.531  0.5340E+00  0.7151E+01
  -5.521  0.5328E+00  0.7156E+01
  -5.511  0.5313E+00  0.7162E+01
  -5.501  0.5314E+00  0.7167E+01
  -5.491  0.5318E+00  0.7172E+01
  -5.481  0.5322E+00  0.7178E+01
  -5.471  0.5326E+00  0.7183E+01
  -5.461  0.5331E+00  0.7188E+01
  -5.451  0.5340E+00  0.7194E+01
  -5.441  0.5477E+00  0.7199E+01
  -5.431  0.5476E+00  0.7204E+01
  -5.421  0.5475E+00  0.7210E+01
  -5.411  0.5474E+00  0.7215E+01
  -5.401  0.5473E+00  0.7221E+01
  -5.391  0.5473E+00  0.7226E+01
  -5.381  0.5472E+00  0.7232E+01
  -5.371  0.5457E+00  0.7237E+01
  -5.361  0.5431E+00  0.7243E+01
  -5.351  0.5405E+00  0.7248E+01
  -5.341  0.5380E+00  0.7254E+01
  -5.331  0.5355E+00  0.7259E+01
  -5.321  0.5330E+00  0.7264E+01
  -5.311  0.5345E+00  0.7270E+01
  -5.301  0.5401E+00  0.7275E+01
  -5.291  0.5457E+00  0.7280E+01
  -5.281  0.5514E+00  0.7286E+01
  -5.271  0.5502E+00  0.7291E+01
  -5.261  0.5450E+00  0.7297E+01
  -5.251  0.5399E+00  0.7302E+01
  -5.241  0.5349E+00  0.7308E+01
  -5.231  0.5300E+00  0.7313E+01
  -5.221  0.5752E+00  0.7319E+01
  -5.211  0.5562E+00  0.7324E+01
  -5.201  0.5372E+00  0.7330E+01
  -5.191  0.6232E+00  0.7335E+01
  -5.181  0.5583E+00  0.7341E+01
  -5.171  0.4935E+00  0.7346E+01
  -5.161  0.4287E+00  0.7351E+01
  -5.151  0.3638E+00  0.7355E+01
  -5.141  0.3515E+00  0.7358E+01
  -5.131  0.3527E+00  0.7362E+01
  -5.121  0.3540E+00  0.7365E+01
  -5.111  0.3555E+00  0.7369E+01
  -5.101  0.3569E+00  0.7372E+01
  -5.091  0.3583E+00  0.7376E+01
  -5.081  0.3597E+00  0.7380E+01
  -5.071  0.3612E+00  0.7383E+01
  -5.061  0.3626E+00  0.7387E+01
  -5.051  0.3642E+00  0.7391E+01
  -5.041  0.3659E+00  0.7394E+01
  -5.031  0.3676E+00  0.7398E+01
  -5.021  0.3692E+00  0.7402E+01
  -5.011  0.3708E+00  0.7405E+01
  -5.001  0.3725E+00  0.7409E+01
  -4.991  0.3743E+00  0.7413E+01
  -4.981  0.3765E+00  0.7416E+01
  -4.971  0.3788E+00  0.7420E+01
  -4.961  0.3812E+00  0.7424E+01
  -4.951  0.3835E+00  0.7428E+01
  -4.941  0.3859E+00  0.7432E+01
  -4.931  0.3882E+00  0.7436E+01
  -4.921  0.3907E+00  0.7439E+01
  -4.911  0.3932E+00  0.7443E+01
  -4.901  0.3957E+00  0.7447E+01
  -4.891  0.3983E+00  0.7451E+01
  -4.881  0.4008E+00  0.7455E+01
  -4.871  0.4033E+00  0.7459E+01
  -4.861  0.4059E+00  0.7463E+01
  -4.851  0.4100E+00  0.7467E+01
  -4.841  0.4144E+00  0.7472E+01
  -4.831  0.4189E+00  0.7476E+01
  -4.821  0.4234E+00  0.7480E+01
  -4.811  0.4279E+00  0.7484E+01
  -4.801  0.4323E+00  0.7488E+01
  -4.791  0.4370E+00  0.7493E+01
  -4.781  0.4422E+00  0.7497E+01
  -4.771  0.4475E+00  0.7502E+01
  -4.761  0.4528E+00  0.7506E+01
  -4.751  0.4580E+00  0.7511E+01
  -4.741  0.4633E+00  0.7515E+01
  -4.731  0.4685E+00  0.7520E+01
  -4.721  0.4788E+00  0.7525E+01
  -4.711  0.4913E+00  0.7530E+01
  -4.701  0.5038E+00  0.7535E+01
  -4.691  0.5163E+00  0.7540E+01
  -4.681  0.5288E+00  0.7545E+01
  -4.671  0.5414E+00  0.7550E+01
  -4.661  0.5551E+00  0.7556E+01
  -4.651  0.5836E+00  0.7561E+01
  -4.641  0.6121E+00  0.7567E+01
  -4.631  0.6405E+00  0.7574E+01
  -4.621  0.6690E+00  0.7580E+01
  -4.611  0.8979E+00  0.7591E+01
  -4.601  0.5849E+00  0.7598E+01
  -4.591  0.5603E+00  0.7604E+01
  -4.581  0.5356E+00  0.7609E+01
  -4.571  0.5110E+00  0.7615E+01
  -4.561  0.4864E+00  0.7620E+01
  -4.551  0.4617E+00  0.7624E+01
  -4.541  0.4371E+00  0.7629E+01
  -4.531  0.4279E+00  0.7633E+01
  -4.521  0.4377E+00  0.7637E+01
  -4.511  0.4475E+00  0.7642E+01
  -4.501  0.4576E+00  0.7646E+01
  -4.491  0.4682E+00  0.7651E+01
  -4.481  0.4791E+00  0.7656E+01
  -4.471  0.3856E+00  0.7659E+01
  -4.461  0.4045E+00  0.7663E+01
  -4.451  0.4318E+00  0.7668E+01
  -4.441  0.4228E+00  0.7672E+01
  -4.431  0.4139E+00  0.7676E+01
  -4.421  0.4049E+00  0.7680E+01
  -4.411  0.3959E+00  0.7684E+01
  -4.401  0.3870E+00  0.7688E+01
  -4.391  0.3780E+00  0.7692E+01
  -4.381  0.3691E+00  0.7696E+01
  -4.371  0.3601E+00  0.7699E+01
  -4.361  0.3511E+00  0.7703E+01
  -4.351  0.3422E+00  0.7706E+01
  -4.341  0.3332E+00  0.7710E+01
  -4.331  0.3243E+00  0.7713E+01
  -4.321  0.3190E+00  0.7716E+01
  -4.311  0.3176E+00  0.7719E+01
  -4.301  0.3162E+00  0.7723E+01
  -4.291  0.3148E+00  0.7726E+01
  -4.281  0.3134E+00  0.7729E+01
  -4.271  0.3120E+00  0.7732E+01
  -4.261  0.3106E+00  0.7735E+01
  -4.251  0.3092E+00  0.7738E+01
  -4.241  0.3078E+00  0.7741E+01
  -4.231  0.3064E+00  0.7744E+01
  -4.221  0.3050E+00  0.7747E+01
  -4.211  0.3037E+00  0.7750E+01
  -4.201  0.2681E+00  0.7753E+01
  -4.191  0.2686E+00  0.7756E+01
  -4.181  0.2691E+00  0.7759E+01
  -4.171  0.2695E+00  0.7761E+01
  -4.161  0.2700E+00  0.7764E+01
  -4.151  0.2704E+00  0.7767E+01
  -4.141  0.2709E+00  0.7770E+01
  -4.131  0.2713E+00  0.7772E+01
  -4.121  0.2718E+00  0.7775E+01
  -4.111  0.2712E+00  0.7778E+01
  -4.101  0.2690E+00  0.7780E+01
  -4.091  0.2668E+00  0.7783E+01
  -4.081  0.2646E+00  0.7786E+01
  -4.071  0.2624E+00  0.7788E+01
  -4.061  0.2602E+00  0.7791E+01
  -4.051  0.2575E+00  0.7794E+01
  -4.041  0.2544E+00  0.7796E+01
  -4.031  0.2513E+00  0.7799E+01
  -4.021  0.2481E+00  0.7801E+01
  -4.011  0.2444E+00  0.7804E+01
  -4.001  0.2406E+00  0.7806E+01
  -3.991  0.2360E+00  0.7808E+01
  -3.981  0.2313E+00  0.7811E+01
  -3.971  0.2287E+00  0.7813E+01
  -3.961  0.2273E+00  0.7815E+01
  -3.951  0.2259E+00  0.7818E+01
  -3.941  0.2245E+00  0.7820E+01
  -3.931  0.2230E+00  0.7822E+01
  -3.921  0.2216E+00  0.7824E+01
  -3.911  0.2202E+00  0.7827E+01
  -3.901  0.2188E+00  0.7829E+01
  -3.891  0.2174E+00  0.7831E+01
  -3.881  0.2159E+00  0.7833E+01
  -3.871  0.2145E+00  0.7835E+01
  -3.861  0.2131E+00  0.7837E+01
  -3.851  0.2117E+00  0.7839E+01
  -3.841  0.2103E+00  0.7842E+01
  -3.831  0.2089E+00  0.7844E+01
  -3.821  0.2074E+00  0.7846E+01
  -3.811  0.2060E+00  0.7848E+01
  -3.801  0.2046E+00  0.7850E+01
  -3.791  0.2032E+00  0.7852E+01
  -3.781  0.1845E+00  0.7854E+01
  -3.771  0.1841E+00  0.7856E+01
  -3.761  0.1837E+00  0.7857E+01
  -3.751  0.1833E+00  0.7859E+01
  -3.741  0.1829E+00  0.7861E+01
  -3.731  0.1825E+00  0.7863E+01
  -3.721  0.1821E+00  0.7865E+01
  -3.711  0.1816E+00  0.7867E+01
  -3.701  0.1812E+00  0.7868E+01
  -3.691  0.1808E+00  0.7870E+01
  -3.681  0.1804E+00  0.7872E+01
  -3.671  0.1800E+00  0.7874E+01
  -3.661  0.1796E+00  0.7876E+01
  -3.651  0.1792E+00  0.7877E+01
  -3.641  0.1780E+00  0.7879E+01
  -3.631  0.1762E+00  0.7881E+01
  -3.621  0.1744E+00  0.7883E+01
  -3.611  0.1726E+00  0.7884E+01
  -3.601  0.1708E+00  0.7886E+01
  -3.591  0.1690E+00  0.7888E+01
  -3.581  0.1672E+00  0.7890E+01
  -3.571  0.1654E+00  0.7891E+01
  -3.561  0.1636E+00  0.7893E+01
  -3.551  0.1617E+00  0.7895E+01
  -3.541  0.1594E+00  0.7896E+01
  -3.531  0.1571E+00  0.7898E+01
  -3.521  0.1548E+00  0.7899E+01
  -3.511  0.1525E+00  0.7901E+01
  -3.501  0.1501E+00  0.7902E+01
  -3.491  0.1475E+00  0.7904E+01
  -3.481  0.1466E+00  0.7905E+01
  -3.471  0.1456E+00  0.7907E+01
  -3.461  0.1446E+00  0.7908E+01
  -3.451  0.1436E+00  0.7910E+01
  -3.441  0.1426E+00  0.7911E+01
  -3.431  0.1416E+00  0.7912E+01
  -3.421  0.1406E+00  0.7914E+01
  -3.411  0.1396E+00  0.7915E+01
  -3.401  0.1386E+00  0.7917E+01
  -3.391  0.1376E+00  0.7918E+01
  -3.381  0.1366E+00  0.7919E+01
  -3.371  0.1356E+00  0.7921E+01
  -3.361  0.1346E+00  0.7922E+01
  -3.351  0.1336E+00  0.7923E+01
  -3.341  0.1326E+00  0.7925E+01
  -3.331  0.1316E+00  0.7926E+01
  -3.321  0.1306E+00  0.7927E+01
  -3.311  0.1296E+00  0.7929E+01
  -3.301  0.1286E+00  0.7930E+01
  -3.291  0.1276E+00  0.7931E+01
  -3.281  0.1266E+00  0.7933E+01
  -3.271  0.1256E+00  0.7934E+01
  -3.261  0.1246E+00  0.7935E+01
  -3.251  0.1236E+00  0.7936E+01
  -3.241  0.1104E+00  0.7938E+01
  -3.231  0.1099E+00  0.7939E+01
  -3.221  0.1095E+00  0.7940E+01
  -3.211  0.1091E+00  0.7941E+01
  -3.201  0.1086E+00  0.7942E+01
  -3.191  0.1082E+00  0.7943E+01
  -3.181  0.1078E+00  0.7944E+01
  -3.171  0.1074E+00  0.7945E+01
  -3.161  0.1069E+00  0.7946E+01
  -3.151  0.1065E+00  0.7947E+01
  -3.141  0.1061E+00  0.7948E+01
  -3.131  0.1056E+00  0.7949E+01
  -3.121  0.1052E+00  0.7950E+01
  -3.111  0.1048E+00  0.7952E+01
  -3.101  0.1043E+00  0.7953E+01
  -3.091  0.1039E+00  0.7954E+01
  -3.081  0.1035E+00  0.7955E+01
  -3.071  0.1027E+00  0.7956E+01
  -3.061  0.1013E+00  0.7957E+01
  -3.051  0.9991E-01  0.7958E+01
  -3.041  0.9850E-01  0.7959E+01
  -3.031  0.9709E-01  0.7960E+01
  -3.021  0.9568E-01  0.7961E+01
  -3.011  0.9424E-01  0.7962E+01
  -3.001  0.9263E-01  0.7963E+01
  -2.991  0.9101E-01  0.7963E+01
  -2.981  0.8940E-01  0.7964E+01
  -2.971  0.8778E-01  0.7965E+01
  -2.961  0.8617E-01  0.7966E+01
  -2.951  0.8456E-01  0.7967E+01
  -2.941  0.8294E-01  0.7968E+01
  -2.931  0.8133E-01  0.7969E+01
  -2.921  0.7971E-01  0.7969E+01
  -2.911  0.7810E-01  0.7970E+01
  -2.901  0.7649E-01  0.7971E+01
  -2.891  0.7487E-01  0.7972E+01
  -2.881  0.7326E-01  0.7972E+01
  -2.871  0.7180E-01  0.7973E+01
  -2.861  0.7122E-01  0.7974E+01
  -2.851  0.7063E-01  0.7975E+01
  -2.841  0.7005E-01  0.7975E+01
  -2.831  0.6946E-01  0.7976E+01
  -2.821  0.6888E-01  0.7977E+01
  -2.811  0.6829E-01  0.7977E+01
  -2.801  0.6771E-01  0.7978E+01
  -2.791  0.6712E-01  0.7979E+01
  -2.781  0.6654E-01  0.7979E+01
  -2.771  0.6595E-01  0.7980E+01
  -2.761  0.6537E-01  0.7981E+01
  -2.751  0.6478E-01  0.7981E+01
  -2.741  0.6420E-01  0.7982E+01
  -2.731  0.6361E-01  0.7983E+01
  -2.721  0.6303E-01  0.7983E+01
  -2.711  0.6244E-01  0.7984E+01
  -2.701  0.6186E-01  0.7985E+01
  -2.691  0.6127E-01  0.7985E+01
  -2.681  0.6069E-01  0.7986E+01
  -2.671  0.6010E-01  0.7986E+01
  -2.661  0.5952E-01  0.7987E+01
  -2.651  0.5893E-01  0.7988E+01
  -2.641  0.5835E-01  0.7988E+01
  -2.631  0.5776E-01  0.7989E+01
  -2.621  0.5718E-01  0.7989E+01
  -2.611  0.5659E-01  0.7990E+01
  -2.601  0.5601E-01  0.7990E+01
  -2.591  0.3868E-01  0.7991E+01
  -2.581  0.3786E-01  0.7991E+01
  -2.571  0.3703E-01  0.7992E+01
  -2.561  0.3621E-01  0.7992E+01
  -2.551  0.3538E-01  0.7992E+01
  -2.541  0.3456E-01  0.7993E+01
  -2.531  0.3373E-01  0.7993E+01
  -2.521  0.3291E-01  0.7993E+01
  -2.511  0.3208E-01  0.7994E+01
  -2.501  0.3126E-01  0.7994E+01
  -2.491  0.3043E-01  0.7994E+01
  -2.481  0.2960E-01  0.7995E+01
  -2.471  0.2878E-01  0.7995E+01
  -2.461  0.2795E-01  0.7995E+01
  -2.451  0.2713E-01  0.7996E+01
  -2.441  0.2630E-01  0.7996E+01
  -2.431  0.2548E-01  0.7996E+01
  -2.421  0.2465E-01  0.7996E+01
  -2.411  0.2383E-01  0.7997E+01
  -2.401  0.2300E-01  0.7997E+01
  -2.391  0.2217E-01  0.7997E+01
  -2.381  0.2135E-01  0.7997E+01
  -2.371  0.2052E-01  0.7997E+01
  -2.361  0.1970E-01  0.7998E+01
  -2.351  0.1887E-01  0.7998E+01
  -2.341  0.1805E-01  0.7998E+01
  -2.331  0.1722E-01  0.7998E+01
  -2.321  0.1640E-01  0.7998E+01
  -2.311  0.1557E-01  0.7999E+01
  -2.301  0.1474E-01  0.7999E+01
  -2.291  0.1392E-01  0.7999E+01
  -2.281  0.1309E-01  0.7999E+01
  -2.271  0.1227E-01  0.7999E+01
  -2.261  0.1144E-01  0.7999E+01
  -2.251  0.1062E-01  0.7999E+01
  -2.241  0.9791E-02  0.7999E+01
  -2.231  0.8966E-02  0.8000E+01
  -2.221  0.8140E-02  0.8000E+01
  -2.211  0.7315E-02  0.8000E+01
  -2.201  0.6489E-02  0.8000E+01
  -2.191  0.5664E-02  0.8000E+01
  -2.181  0.4838E-02  0.8000E+01
  -2.171  0.4013E-02  0.8000E+01
  -2.161  0.3187E-02  0.8000E+01
  -2.151  0.2362E-02  0.8000E+01
  -2.141  0.1536E-02  0.8000E+01
  -2.131  0.7105E-03  0.8000E+01
  -2.121  0.1194E-03  0.8000E+01
  -2.111  0.9761E-03  0.8000E+01
  -2.101  0.1833E-02  0.8000E+01
  -2.091  0.2690E-02  0.8000E+01
  -2.081  0.3546E-02  0.8000E+01
  -2.071  0.4403E-02  0.8000E+01
  -2.061  0.5260E-02  0.8000E+01
  -2.051  0.6116E-02  0.8000E+01
  -2.041  0.6973E-02  0.8000E+01
  -2.031  0.7830E-02  0.8000E+01
  -2.021  0.8687E-02  0.8000E+01
  -2.011  0.9543E-02  0.8001E+01
  -2.001  0.1040E-01  0.8001E+01
  -1.991  0.1126E-01  0.8001E+01
  -1.981  0.1211E-01  0.8001E+01
  -1.971  0.1297E-01  0.8001E+01
  -1.961  0.1383E-01  0.8001E+01
  -1.951  0.1468E-01  0.8001E+01
  -1.941  0.1554E-01  0.8001E+01
  -1.931  0.1640E-01  0.8002E+01
  -1.921  0.1725E-01  0.8002E+01
  -1.911  0.1811E-01  0.8002E+01
  -1.901  0.1897E-01  0.8002E+01
  -1.891  0.1982E-01  0.8002E+01
  -1.881  0.2068E-01  0.8002E+01
  -1.871  0.2154E-01  0.8003E+01
  -1.861  0.2239E-01  0.8003E+01
  -1.851  0.2325E-01  0.8003E+01
  -1.841  0.2411E-01  0.8003E+01
  -1.831  0.2496E-01  0.8004E+01
  -1.821  0.2582E-01  0.8004E+01
  -1.811  0.2668E-01  0.8004E+01
  -1.801  0.2753E-01  0.8004E+01
  -1.791  0.2839E-01  0.8005E+01
  -1.781  0.2925E-01  0.8005E+01
  -1.771  0.3010E-01  0.8005E+01
  -1.761  0.3096E-01  0.8006E+01
  -1.751  0.3182E-01  0.8006E+01
  -1.741  0.3268E-01  0.8006E+01
  -1.731  0.3353E-01  0.8007E+01
  -1.721  0.3439E-01  0.8007E+01
  -1.711  0.3525E-01  0.8007E+01
  -1.701  0.3610E-01  0.8008E+01
  -1.691  0.3696E-01  0.8008E+01
  -1.681  0.3782E-01  0.8008E+01
  -1.671  0.3867E-01  0.8009E+01
  -1.661  0.3953E-01  0.8009E+01
  -1.651  0.6006E-01  0.8010E+01
  -1.641  0.6065E-01  0.8010E+01
  -1.631  0.6124E-01  0.8011E+01
  -1.621  0.6183E-01  0.8011E+01
  -1.611  0.6243E-01  0.8012E+01
  -1.601  0.6302E-01  0.8013E+01
  -1.591  0.6361E-01  0.8013E+01
  -1.581  0.6420E-01  0.8014E+01
  -1.571  0.6480E-01  0.8015E+01
  -1.561  0.6539E-01  0.8015E+01
  -1.551  0.6598E-01  0.8016E+01
  -1.541  0.6658E-01  0.8017E+01
  -1.531  0.6717E-01  0.8017E+01
  -1.521  0.6776E-01  0.8018E+01
  -1.511  0.6835E-01  0.8019E+01
  -1.501  0.6895E-01  0.8019E+01
  -1.491  0.6954E-01  0.8020E+01
  -1.481  0.7013E-01  0.8021E+01
  -1.471  0.7072E-01  0.8021E+01
  -1.461  0.7132E-01  0.8022E+01
  -1.451  0.7191E-01  0.8023E+01
  -1.441  0.7250E-01  0.8024E+01
  -1.431  0.7310E-01  0.8024E+01
  -1.421  0.7369E-01  0.8025E+01
  -1.411  0.7428E-01  0.8026E+01
  -1.401  0.7596E-01  0.8027E+01
  -1.391  0.7810E-01  0.8027E+01
  -1.381  0.8025E-01  0.8028E+01
  -1.371  0.8239E-01  0.8029E+01
  -1.361  0.8454E-01  0.8030E+01
  -1.351  0.8669E-01  0.8031E+01
  -1.341  0.8883E-01  0.8031E+01
  -1.331  0.9098E-01  0.8032E+01
  -1.321  0.9313E-01  0.8033E+01
  -1.311  0.9527E-01  0.8034E+01
  -1.301  0.9742E-01  0.8035E+01
  -1.291  0.9956E-01  0.8036E+01
  -1.281  0.1017E+00  0.8037E+01
  -1.271  0.1039E+00  0.8038E+01
  -1.261  0.1060E+00  0.8039E+01
  -1.251  0.1081E+00  0.8040E+01
  -1.241  0.1099E+00  0.8041E+01
  -1.231  0.1115E+00  0.8043E+01
  -1.221  0.1130E+00  0.8044E+01
  -1.211  0.1145E+00  0.8045E+01
  -1.201  0.1157E+00  0.8046E+01
  -1.191  0.1157E+00  0.8047E+01
  -1.181  0.1158E+00  0.8048E+01
  -1.171  0.1159E+00  0.8049E+01
  -1.161  0.1159E+00  0.8051E+01
  -1.151  0.1160E+00  0.8052E+01
  -1.141  0.1160E+00  0.8053E+01
  -1.131  0.1161E+00  0.8054E+01
  -1.121  0.1161E+00  0.8055E+01
  -1.111  0.1162E+00  0.8056E+01
  -1.101  0.1162E+00  0.8058E+01
  -1.091  0.1163E+00  0.8059E+01
  -1.081  0.1421E+00  0.8060E+01
  -1.071  0.1430E+00  0.8061E+01
  -1.061  0.1439E+00  0.8063E+01
  -1.051  0.1448E+00  0.8064E+01
  -1.041  0.1457E+00  0.8066E+01
  -1.031  0.1466E+00  0.8067E+01
  -1.021  0.1475E+00  0.8069E+01
  -1.011  0.1484E+00  0.8070E+01
  -1.001  0.1493E+00  0.8072E+01
  -0.991  0.1502E+00  0.8073E+01
  -0.981  0.1511E+00  0.8075E+01
  -0.971  0.1520E+00  0.8076E+01
  -0.961  0.1529E+00  0.8078E+01
  -0.951  0.1538E+00  0.8079E+01
  -0.941  0.1547E+00  0.8081E+01
  -0.931  0.1557E+00  0.8082E+01
  -0.921  0.1566E+00  0.8084E+01
  -0.911  0.1587E+00  0.8085E+01
  -0.901  0.1638E+00  0.8087E+01
  -0.891  0.1688E+00  0.8089E+01
  -0.881  0.1738E+00  0.8090E+01
  -0.871  0.1789E+00  0.8092E+01
  -0.861  0.1839E+00  0.8094E+01
  -0.851  0.1889E+00  0.8096E+01
  -0.841  0.1940E+00  0.8098E+01
  -0.831  0.1990E+00  0.8100E+01
  -0.821  0.2040E+00  0.8102E+01
  -0.811  0.2091E+00  0.8104E+01
  -0.801  0.2141E+00  0.8106E+01
  -0.791  0.2192E+00  0.8108E+01
  -0.781  0.2242E+00  0.8110E+01
  -0.771  0.2292E+00  0.8113E+01
  -0.761  0.2287E+00  0.8115E+01
  -0.751  0.2256E+00  0.8117E+01
  -0.741  0.2211E+00  0.8119E+01
  -0.731  0.2154E+00  0.8122E+01
  -0.721  0.2097E+00  0.8124E+01
  -0.711  0.2040E+00  0.8126E+01
  -0.701  0.2719E+00  0.8128E+01
  -0.691  0.2684E+00  0.8131E+01
  -0.681  0.2650E+00  0.8133E+01
  -0.671  0.2616E+00  0.8136E+01
  -0.661  0.2582E+00  0.8139E+01
  -0.651  0.2548E+00  0.8141E+01
  -0.641  0.2514E+00  0.8144E+01
  -0.631  0.2480E+00  0.8146E+01
  -0.621  0.2526E+00  0.8149E+01
  -0.611  0.2645E+00  0.8151E+01
  -0.601  0.2765E+00  0.8154E+01
  -0.591  0.2884E+00  0.8157E+01
  -0.581  0.3003E+00  0.8160E+01
  -0.571  0.3123E+00  0.8163E+01
  -0.561  0.3242E+00  0.8166E+01
  -0.551  0.3361E+00  0.8169E+01
  -0.541  0.3481E+00  0.8173E+01
  -0.531  0.3600E+00  0.8176E+01
  -0.521  0.3719E+00  0.8180E+01
  -0.511  0.3838E+00  0.8184E+01
  -0.501  0.9114E+00  0.8188E+01
  -0.491  0.5694E+00  0.8195E+01
  -0.481  0.4097E+00  0.8200E+01
  -0.471  0.4194E+00  0.8204E+01
  -0.461  0.4382E+00  0.8208E+01
  -0.451  0.4628E+00  0.8213E+01
  -0.441  0.4875E+00  0.8217E+01
  -0.431  0.5122E+00  0.8222E+01
  -0.421  0.8848E+00  0.8229E+01
  -0.411  0.7330E+00  0.8240E+01
  -0.401  0.8756E+00  0.8248E+01
  -0.391  0.1020E+01  0.8258E+01
  -0.381  0.1164E+01  0.8269E+01
  -0.371  0.7164E+00  0.8276E+01
  -0.361  0.6896E+00  0.8283E+01
  -0.351  0.6628E+00  0.8290E+01
  -0.341  0.6360E+00  0.8297E+01
  -0.331  0.6092E+00  0.8303E+01
  -0.321  0.5894E+00  0.8309E+01
  -0.311  0.5710E+00  0.8315E+01
  -0.301  0.5525E+00  0.8320E+01
  -0.291  0.5341E+00  0.8326E+01
  -0.281  0.5156E+00  0.8331E+01
  -0.271  0.4995E+00  0.8336E+01
  -0.261  0.4880E+00  0.8341E+01
  -0.251  0.4805E+00  0.8346E+01
  -0.241  0.4741E+00  0.8351E+01
  -0.231  0.4676E+00  0.8355E+01
  -0.221  0.4612E+00  0.8360E+01
  -0.211  0.4547E+00  0.8365E+01
  -0.201  0.4484E+00  0.8369E+01
  -0.191  0.4431E+00  0.8374E+01
  -0.181  0.4379E+00  0.8378E+01
  -0.171  0.4326E+00  0.8382E+01
  -0.161  0.4274E+00  0.8387E+01
  -0.151  0.4222E+00  0.8391E+01
  -0.141  0.4169E+00  0.8395E+01
  -0.131  0.4117E+00  0.8399E+01
  -0.121  0.4064E+00  0.8403E+01
  -0.111  0.4013E+00  0.8407E+01
  -0.101  0.3972E+00  0.8411E+01
  -0.091  0.3932E+00  0.8415E+01
  -0.081  0.3891E+00  0.8419E+01
  -0.071  0.3863E+00  0.8423E+01
  -0.061  0.3834E+00  0.8427E+01
  -0.051  0.3806E+00  0.8431E+01
  -0.041  0.3781E+00  0.8435E+01
  -0.031  0.3755E+00  0.8438E+01
  -0.021  0.3730E+00  0.8442E+01
  -0.011  0.3705E+00  0.8446E+01
  -0.001  0.3680E+00  0.8449E+01
   0.009  0.3654E+00  0.8453E+01
   0.019  0.3629E+00  0.8457E+01
   0.029  0.3604E+00  0.8460E+01
   0.039  0.3579E+00  0.8464E+01
   0.049  0.3553E+00  0.8468E+01
   0.059  0.3528E+00  0.8471E+01
   0.069  0.3503E+00  0.8475E+01
   0.079  0.3477E+00  0.8478E+01
   0.089  0.3452E+00  0.8482E+01
   0.099  0.3431E+00  0.8485E+01
   0.109  0.3410E+00  0.8488E+01
   0.119  0.3388E+00  0.8492E+01
   0.129  0.3367E+00  0.8495E+01
   0.139  0.3346E+00  0.8499E+01
   0.149  0.3326E+00  0.8502E+01
   0.159  0.3308E+00  0.8505E+01
   0.169  0.3292E+00  0.8508E+01
   0.179  0.3277E+00  0.8512E+01
   0.189  0.3261E+00  0.8515E+01
   0.199  0.3245E+00  0.8518E+01
   0.209  0.3229E+00  0.8522E+01
   0.219  0.3212E+00  0.8525E+01
   0.229  0.3195E+00  0.8528E+01
   0.239  0.3178E+00  0.8531E+01
   0.249  0.3161E+00  0.8534E+01
   0.259  0.3144E+00  0.8537E+01
   0.269  0.3127E+00  0.8541E+01
   0.279  0.3098E+00  0.8544E+01
   0.289  0.3086E+00  0.8547E+01
   0.299  0.3073E+00  0.8550E+01
   0.309  0.3061E+00  0.8553E+01
   0.319  0.3049E+00  0.8556E+01
   0.329  0.3038E+00  0.8559E+01
   0.339  0.3026E+00  0.8562E+01
   0.349  0.3015E+00  0.8565E+01
   0.359  0.3003E+00  0.8568E+01
   0.369  0.2992E+00  0.8571E+01
   0.379  0.2980E+00  0.8574E+01
   0.389  0.2969E+00  0.8577E+01
   0.399  0.2957E+00  0.8580E+01
   0.409  0.2947E+00  0.8583E+01
   0.419  0.2936E+00  0.8586E+01
   0.429  0.2926E+00  0.8589E+01
   0.439  0.2916E+00  0.8592E+01
   0.449  0.2907E+00  0.8595E+01
   0.459  0.2898E+00  0.8598E+01
   0.469  0.2890E+00  0.8600E+01
   0.479  0.2881E+00  0.8603E+01
   0.489  0.2872E+00  0.8606E+01
   0.499  0.2863E+00  0.8609E+01
   0.509  0.2854E+00  0.8612E+01
   0.519  0.2845E+00  0.8615E+01
   0.529  0.2837E+00  0.8618E+01
   0.539  0.2828E+00  0.8620E+01
   0.549  0.2820E+00  0.8623E+01
   0.559  0.2811E+00  0.8626E+01
   0.569  0.2803E+00  0.8629E+01
   0.579  0.2794E+00  0.8632E+01
   0.589  0.2785E+00  0.8635E+01
   0.599  0.2777E+00  0.8637E+01
   0.609  0.2768E+00  0.8640E+01
   0.619  0.2760E+00  0.8643E+01
   0.629  0.2751E+00  0.8646E+01
   0.639  0.2743E+00  0.8648E+01
   0.649  0.2734E+00  0.8651E+01
   0.659  0.2725E+00  0.8654E+01
   0.669  0.2717E+00  0.8657E+01
   0.679  0.2709E+00  0.8659E+01
   0.689  0.2700E+00  0.8662E+01
   0.699  0.2692E+00  0.8665E+01
   0.709  0.2683E+00  0.8667E+01
   0.719  0.2675E+00  0.8670E+01
   0.729  0.2666E+00  0.8673E+01
   0.739  0.2658E+00  0.8675E+01
   0.749  0.2650E+00  0.8678E+01
   0.759  0.2642E+00  0.8681E+01
   0.769  0.2634E+00  0.8683E+01
   0.779  0.2627E+00  0.8686E+01
   0.789  0.2619E+00  0.8689E+01
   0.799  0.2611E+00  0.8691E+01
   0.809  0.2603E+00  0.8694E+01
   0.819  0.2591E+00  0.8696E+01
   0.829  0.2580E+00  0.8699E+01
   0.839  0.2568E+00  0.8702E+01
   0.849  0.2558E+00  0.8704E+01
   0.859  0.2553E+00  0.8707E+01
   0.869  0.2547E+00  0.8709E+01
   0.879  0.2542E+00  0.8712E+01
   0.889  0.3462E+00  0.8715E+01
   0.899  0.4847E+00  0.8719E+01
   0.909  0.4329E+00  0.8724E+01
   0.919  0.4440E+00  0.8728E+01
   0.929  0.4550E+00  0.8733E+01
   0.939  0.4661E+00  0.8738E+01
   0.949  0.4772E+00  0.8742E+01
   0.959  0.4882E+00  0.8747E+01
   0.969  0.4752E+00  0.8752E+01
   0.979  0.4602E+00  0.8757E+01
   0.989  0.4515E+00  0.8761E+01
   0.999  0.4551E+00  0.8766E+01
   1.009  0.4586E+00  0.8770E+01
   1.019  0.4621E+00  0.8775E+01
   1.029  0.4656E+00  0.8780E+01
   1.039  0.4692E+00  0.8784E+01
   1.049  0.4727E+00  0.8789E+01
   1.059  0.4763E+00  0.8794E+01
   1.069  0.4589E+00  0.8798E+01
   1.079  0.4575E+00  0.8803E+01
   1.089  0.4560E+00  0.8807E+01
   1.099  0.4546E+00  0.8812E+01
   1.109  0.4532E+00  0.8817E+01
   1.119  0.4531E+00  0.8821E+01
   1.129  0.4547E+00  0.8826E+01
   1.139  0.4563E+00  0.8830E+01
   1.149  0.4579E+00  0.8835E+01
   1.159  0.4594E+00  0.8839E+01
   1.169  0.4610E+00  0.8844E+01
   1.179  0.4626E+00  0.8849E+01
   1.189  0.4641E+00  0.8853E+01
   1.199  0.4606E+00  0.8858E+01
   1.209  0.4546E+00  0.8862E+01
   1.219  0.4493E+00  0.8867E+01
   1.229  0.4491E+00  0.8871E+01
   1.239  0.4490E+00  0.8876E+01
   1.249  0.4489E+00  0.8880E+01
   1.259  0.4487E+00  0.8885E+01
   1.269  0.4486E+00  0.8889E+01
   1.279  0.4485E+00  0.8894E+01
   1.289  0.4483E+00  0.8898E+01
   1.299  0.4485E+00  0.8903E+01
   1.309  0.4492E+00  0.8907E+01
   1.319  0.4500E+00  0.8912E+01
   1.329  0.4507E+00  0.8916E+01
   1.339  0.4514E+00  0.8921E+01
   1.349  0.4520E+00  0.8925E+01
   1.359  0.4526E+00  0.8930E+01
   1.369  0.4533E+00  0.8934E+01
   1.379  0.4461E+00  0.8939E+01
   1.389  0.4445E+00  0.8943E+01
   1.399  0.4429E+00  0.8948E+01
   1.409  0.4413E+00  0.8952E+01
   1.419  0.4397E+00  0.8957E+01
   1.429  0.4377E+00  0.8961E+01
   1.439  0.4379E+00  0.8965E+01
   1.449  0.4380E+00  0.8970E+01
   1.459  0.4382E+00  0.8974E+01
   1.469  0.4383E+00  0.8978E+01
   1.479  0.4385E+00  0.8983E+01
   1.489  0.4386E+00  0.8987E+01
   1.499  0.4388E+00  0.8992E+01
   1.509  0.4389E+00  0.8996E+01
   1.519  0.4391E+00  0.9000E+01
   1.529  0.4393E+00  0.9005E+01
   1.539  0.4398E+00  0.9009E+01
   1.549  0.4403E+00  0.9014E+01
   1.559  0.4757E+00  0.9018E+01
   1.569  0.6108E+00  0.9023E+01
   1.579  0.7459E+00  0.9030E+01
   1.589  0.6228E+00  0.9037E+01
   1.599  0.6311E+00  0.9043E+01
   1.609  0.6403E+00  0.9050E+01
   1.619  0.6510E+00  0.9056E+01
   1.629  0.6617E+00  0.9063E+01
   1.639  0.6626E+00  0.9069E+01
   1.649  0.6481E+00  0.9076E+01
   1.659  0.6336E+00  0.9082E+01
   1.669  0.6329E+00  0.9089E+01
   1.679  0.6363E+00  0.9095E+01
   1.689  0.7026E+00  0.9101E+01
   1.699  0.8398E+00  0.9109E+01
   1.709  0.9770E+00  0.9118E+01
   1.719  0.8370E+00  0.9127E+01
   1.729  0.8521E+00  0.9135E+01
   1.739  0.8672E+00  0.9144E+01
   1.749  0.8603E+00  0.9152E+01
   1.759  0.8706E+00  0.9161E+01
   1.769  0.8670E+00  0.9170E+01
   1.779  0.8523E+00  0.9178E+01
   1.789  0.8376E+00  0.9187E+01
   1.799  0.8412E+00  0.9195E+01
   1.809  0.8472E+00  0.9204E+01
   1.819  0.8532E+00  0.9212E+01
   1.829  0.8594E+00  0.9221E+01
   1.839  0.8621E+00  0.9229E+01
   1.849  0.8670E+00  0.9238E+01
   1.859  0.8719E+00  0.9247E+01
   1.869  0.8592E+00  0.9255E+01
   1.879  0.8536E+00  0.9264E+01
   1.889  0.8464E+00  0.9273E+01
   1.899  0.8409E+00  0.9281E+01
   1.909  0.8401E+00  0.9289E+01
   1.919  0.8392E+00  0.9298E+01
   1.929  0.8405E+00  0.9306E+01
   1.939  0.8425E+00  0.9315E+01
   1.949  0.8445E+00  0.9323E+01
   1.959  0.8465E+00  0.9331E+01
   1.969  0.8485E+00  0.9340E+01
   1.979  0.8508E+00  0.9348E+01
   1.989  0.8537E+00  0.9357E+01
   1.999  0.8565E+00  0.9366E+01
   2.009  0.8534E+00  0.9374E+01
   2.019  0.8491E+00  0.9383E+01
   2.029  0.8459E+00  0.9391E+01
   2.039  0.8471E+00  0.9400E+01
   2.049  0.8487E+00  0.9408E+01
   2.059  0.8431E+00  0.9416E+01
   2.069  0.8425E+00  0.9425E+01
   2.079  0.8420E+00  0.9433E+01
   2.089  0.8415E+00  0.9442E+01
   2.099  0.8410E+00  0.9450E+01
   2.109  0.8410E+00  0.9459E+01
   2.119  0.8428E+00  0.9467E+01
   2.129  0.8432E+00  0.9475E+01
   2.139  0.8431E+00  0.9484E+01
   2.149  0.8431E+00  0.9492E+01
   2.159  0.8443E+00  0.9501E+01
   2.169  0.8456E+00  0.9509E+01
   2.179  0.8468E+00  0.9518E+01
   2.189  0.8410E+00  0.9526E+01
   2.199  0.8401E+00  0.9534E+01
   2.209  0.8392E+00  0.9543E+01
   2.219  0.8386E+00  0.9551E+01
   2.229  0.8381E+00  0.9560E+01
   2.239  0.8380E+00  0.9568E+01
   2.249  0.8392E+00  0.9576E+01
   2.259  0.8403E+00  0.9585E+01
   2.269  0.8399E+00  0.9593E+01
   2.279  0.8378E+00  0.9602E+01
   2.289  0.8357E+00  0.9610E+01
   2.299  0.8356E+00  0.9618E+01
   2.309  0.8358E+00  0.9627E+01
   2.319  0.8360E+00  0.9635E+01
   2.329  0.8363E+00  0.9643E+01
   2.339  0.8365E+00  0.9652E+01
   2.349  0.8369E+00  0.9660E+01
   2.359  0.8375E+00  0.9668E+01
   2.369  0.8382E+00  0.9677E+01
   2.379  0.8394E+00  0.9685E+01
   2.389  0.8407E+00  0.9694E+01
   2.399  0.8410E+00  0.9702E+01
   2.409  0.8390E+00  0.9710E+01
   2.419  0.8370E+00  0.9719E+01
   2.429  0.8365E+00  0.9727E+01
   2.439  0.8367E+00  0.9736E+01
   2.449  0.8370E+00  0.9744E+01
   2.459  0.8353E+00  0.9752E+01
   2.469  0.8348E+00  0.9761E+01
   2.479  0.8344E+00  0.9769E+01
   2.489  0.8340E+00  0.9777E+01
   2.499  0.8335E+00  0.9786E+01
   2.509  0.8336E+00  0.9794E+01
   2.519  0.8343E+00  0.9802E+01
   2.529  0.8314E+00  0.9811E+01
   2.539  0.8309E+00  0.9819E+01
   2.549  0.8305E+00  0.9827E+01
   2.559  0.8300E+00  0.9836E+01
   2.569  0.8294E+00  0.9844E+01
   2.579  0.8289E+00  0.9852E+01
   2.589  0.8291E+00  0.9861E+01
   2.599  0.8292E+00  0.9869E+01
   2.609  0.8294E+00  0.9877E+01
   2.619  0.8296E+00  0.9885E+01
   2.629  0.8299E+00  0.9894E+01
   2.639  0.8303E+00  0.9902E+01
   2.649  0.8307E+00  0.9910E+01
   2.659  0.8303E+00  0.9919E+01
   2.669  0.8267E+00  0.9927E+01
   2.679  0.8262E+00  0.9935E+01
   2.689  0.8258E+00  0.9943E+01
   2.699  0.8885E+00  0.9952E+01
   2.709  0.1024E+01  0.9961E+01
   2.719  0.1159E+01  0.9972E+01
   2.729  0.1012E+01  0.9983E+01
   2.739  0.1024E+01  0.9993E+01
   2.749  0.1036E+01  0.1000E+02
   2.759  0.1048E+01  0.1001E+02
   2.769  0.1059E+01  0.1002E+02
   2.779  0.1055E+01  0.1003E+02
   2.789  0.1042E+01  0.1005E+02
   2.799  0.1028E+01  0.1006E+02
   2.809  0.1033E+01  0.1007E+02
   2.819  0.1036E+01  0.1008E+02
   2.829  0.1038E+01  0.1009E+02
   2.839  0.1039E+01  0.1010E+02
   2.849  0.1043E+01  0.1011E+02
   2.859  0.1046E+01  0.1012E+02
   2.869  0.1050E+01  0.1013E+02
   2.879  0.1036E+01  0.1014E+02
   2.889  0.1035E+01  0.1015E+02
   2.899  0.1034E+01  0.1016E+02
   2.909  0.1033E+01  0.1017E+02
   2.919  0.1032E+01  0.1018E+02
   2.929  0.1031E+01  0.1019E+02
   2.939  0.1033E+01  0.1020E+02
   2.949  0.1035E+01  0.1021E+02
   2.959  0.1036E+01  0.1022E+02
   2.969  0.1037E+01  0.1023E+02
   2.979  0.1038E+01  0.1024E+02
   2.989  0.1039E+01  0.1025E+02
   2.999  0.1041E+01  0.1026E+02
   3.009  0.1042E+01  0.1027E+02
   3.019  0.1037E+01  0.1028E+02
   3.029  0.1032E+01  0.1029E+02
   3.039  0.1029E+01  0.1030E+02
   3.049  0.1029E+01  0.1031E+02
   3.059  0.1030E+01  0.1032E+02
   3.069  0.1031E+01  0.1034E+02
   3.079  0.1031E+01  0.1035E+02
   3.089  0.1032E+01  0.1036E+02
   3.099  0.1033E+01  0.1037E+02
   3.109  0.1034E+01  0.1038E+02
   3.119  0.1035E+01  0.1039E+02
   3.129  0.1036E+01  0.1040E+02
   3.139  0.1038E+01  0.1041E+02
   3.149  0.1040E+01  0.1042E+02
   3.159  0.1039E+01  0.1043E+02
   3.169  0.1040E+01  0.1044E+02
   3.179  0.1040E+01  0.1045E+02
   3.189  0.1041E+01  0.1046E+02
   3.199  0.1034E+01  0.1047E+02
   3.209  0.1033E+01  0.1048E+02
   3.219  0.1032E+01  0.1049E+02
   3.229  0.1032E+01  0.1050E+02
   3.239  0.1029E+01  0.1051E+02
   3.249  0.1029E+01  0.1052E+02
   3.259  0.1029E+01  0.1053E+02
   3.269  0.1029E+01  0.1054E+02
   3.279  0.1029E+01  0.1055E+02
   3.289  0.1029E+01  0.1056E+02
   3.299  0.1027E+01  0.1057E+02
   3.309  0.1027E+01  0.1058E+02
   3.319  0.1027E+01  0.1059E+02
   3.329  0.1027E+01  0.1060E+02
   3.339  0.1028E+01  0.1061E+02
   3.349  0.1028E+01  0.1062E+02
   3.359  0.1030E+01  0.1063E+02
   3.369  0.1031E+01  0.1064E+02
   3.379  0.1032E+01  0.1066E+02
   3.389  0.1034E+01  0.1067E+02
   3.399  0.1035E+01  0.1068E+02
   3.409  0.1033E+01  0.1069E+02
   3.419  0.1032E+01  0.1070E+02
   3.429  0.1031E+01  0.1071E+02
   3.439  0.1034E+01  0.1072E+02
   3.449  0.1036E+01  0.1073E+02
   3.459  0.1038E+01  0.1074E+02
   3.469  0.1041E+01  0.1075E+02
   3.479  0.1044E+01  0.1076E+02
   3.489  0.1047E+01  0.1077E+02
   3.499  0.1051E+01  0.1078E+02
   3.509  0.1054E+01  0.1079E+02
   3.519  0.1057E+01  0.1080E+02
   3.529  0.1060E+01  0.1081E+02
   3.539  0.1063E+01  0.1082E+02
   3.549  0.1068E+01  0.1083E+02
   3.559  0.1075E+01  0.1084E+02
   3.569  0.1081E+01  0.1085E+02
   3.579  0.1088E+01  0.1086E+02
   3.589  0.1094E+01  0.1088E+02
   3.599  0.1100E+01  0.1089E+02
   3.609  0.1107E+01  0.1090E+02
   3.619  0.1115E+01  0.1091E+02
   3.629  0.1129E+01  0.1092E+02
   3.639  0.1143E+01  0.1093E+02
   3.649  0.1157E+01  0.1094E+02
   3.659  0.1171E+01  0.1095E+02
   3.669  0.1180E+01  0.1097E+02
   3.679  0.1202E+01  0.1098E+02
   3.689  0.1226E+01  0.1099E+02
   3.699  0.1251E+01  0.1100E+02
   3.709  0.1281E+01  0.1102E+02
   3.719  0.1310E+01  0.1103E+02
   3.729  0.1340E+01  0.1104E+02
   3.739  0.1370E+01  0.1106E+02
   3.749  0.1374E+01  0.1107E+02
   3.759  0.1360E+01  0.1108E+02
   3.769  0.1346E+01  0.1110E+02
   3.779  0.1283E+01  0.1111E+02
   3.789  0.1202E+01  0.1112E+02
   3.799  0.1138E+01  0.1113E+02
   3.809  0.1075E+01  0.1114E+02
   3.819  0.1011E+01  0.1116E+02
   3.829  0.9475E+00  0.1116E+02
   3.839  0.9122E+00  0.1117E+02
   3.849  0.8852E+00  0.1118E+02
   3.859  0.8581E+00  0.1119E+02
   3.869  0.8310E+00  0.1120E+02
   3.879  0.8039E+00  0.1121E+02
   3.889  0.7768E+00  0.1122E+02
   3.899  0.7498E+00  0.1122E+02
   3.909  0.7399E+00  0.1123E+02
   3.919  0.7305E+00  0.1124E+02
   3.929  0.7226E+00  0.1125E+02
   3.939  0.7147E+00  0.1125E+02
   3.949  0.6624E+00  0.1126E+02
   3.959  0.6640E+00  0.1127E+02
   3.969  0.6656E+00  0.1127E+02
   3.979  0.6680E+00  0.1128E+02
   3.989  0.6719E+00  0.1129E+02
   3.999  0.6768E+00  0.1129E+02
   4.009  0.6939E+00  0.1130E+02
   4.019  0.7111E+00  0.1131E+02
   4.029  0.7284E+00  0.1131E+02
   4.039  0.7457E+00  0.1132E+02
   4.049  0.7630E+00  0.1133E+02
   4.059  0.7805E+00  0.1134E+02
   4.069  0.7981E+00  0.1135E+02
   4.079  0.8301E+00  0.1135E+02
   4.089  0.1030E+01  0.1136E+02
   4.099  0.1248E+01  0.1137E+02
   4.109  0.1323E+01  0.1139E+02
   4.119  0.1333E+01  0.1140E+02
   4.129  0.1343E+01  0.1141E+02
   4.139  0.1324E+01  0.1143E+02
   4.149  0.1282E+01  0.1144E+02
   4.159  0.1301E+01  0.1145E+02
   4.169  0.1283E+01  0.1147E+02
   4.179  0.1235E+01  0.1148E+02
   4.189  0.1156E+01  0.1149E+02
   4.199  0.1078E+01  0.1150E+02
   4.209  0.1026E+01  0.1151E+02
   4.219  0.1045E+01  0.1152E+02
   4.229  0.1063E+01  0.1153E+02
   4.239  0.1082E+01  0.1154E+02
   4.249  0.1100E+01  0.1155E+02
   4.259  0.1118E+01  0.1157E+02
   4.269  0.1137E+01  0.1158E+02
   4.279  0.1155E+01  0.1159E+02
   4.289  0.1172E+01  0.1160E+02
   4.299  0.1189E+01  0.1161E+02
   4.309  0.1209E+01  0.1162E+02
   4.319  0.1130E+01  0.1164E+02
   4.329  0.1026E+01  0.1165E+02
   4.339  0.9663E+00  0.1166E+02
   4.349  0.9363E+00  0.1167E+02
   4.359  0.9064E+00  0.1167E+02
   4.369  0.8764E+00  0.1168E+02
   4.379  0.8263E+00  0.1169E+02
   4.389  0.6952E+00  0.1170E+02
   4.399  0.6921E+00  0.1171E+02
   4.409  0.6915E+00  0.1171E+02
   4.419  0.6908E+00  0.1172E+02
   4.429  0.6901E+00  0.1173E+02
   4.439  0.6894E+00  0.1173E+02
   4.449  0.6890E+00  0.1174E+02
   4.459  0.6885E+00  0.1175E+02
   4.469  0.6890E+00  0.1176E+02
   4.479  0.6902E+00  0.1176E+02
   4.489  0.6915E+00  0.1177E+02
   4.499  0.6928E+00  0.1178E+02
   4.509  0.6940E+00  0.1178E+02
   4.519  0.6953E+00  0.1179E+02
   4.529  0.6965E+00  0.1180E+02
   4.539  0.7015E+00  0.1180E+02
   4.549  0.7102E+00  0.1181E+02
   4.559  0.7193E+00  0.1182E+02
   4.569  0.7192E+00  0.1183E+02
   4.579  0.7287E+00  0.1183E+02
   4.589  0.7590E+00  0.1184E+02
   4.599  0.7900E+00  0.1185E+02
   4.609  0.8212E+00  0.1186E+02
   4.619  0.8798E+00  0.1186E+02
   4.629  0.9308E+00  0.1187E+02
   4.639  0.9790E+00  0.1188E+02
   4.649  0.1024E+01  0.1189E+02
   4.659  0.1068E+01  0.1190E+02
   4.669  0.1107E+01  0.1191E+02
   4.679  0.1145E+01  0.1193E+02
   4.689  0.1184E+01  0.1194E+02
   4.699  0.1223E+01  0.1195E+02
   4.709  0.1262E+01  0.1196E+02
   4.719  0.1300E+01  0.1197E+02
   4.729  0.1332E+01  0.1199E+02
   4.739  0.1363E+01  0.1200E+02
   4.749  0.1396E+01  0.1201E+02
   4.759  0.1436E+01  0.1203E+02
   4.769  0.1475E+01  0.1204E+02
   4.779  0.1486E+01  0.1206E+02
   4.789  0.1490E+01  0.1207E+02
   4.799  0.1479E+01  0.1209E+02
   4.809  0.1467E+01  0.1210E+02
   4.819  0.1456E+01  0.1212E+02
   4.829  0.1445E+01  0.1213E+02
   4.839  0.1434E+01  0.1215E+02
   4.849  0.1423E+01  0.1216E+02
   4.859  0.1412E+01  0.1217E+02
   4.869  0.1368E+01  0.1219E+02
   4.879  0.1283E+01  0.1220E+02
   4.889  0.1209E+01  0.1221E+02
   4.899  0.1135E+01  0.1223E+02
   4.909  0.1061E+01  0.1224E+02
   4.919  0.1008E+01  0.1225E+02
   4.929  0.9702E+00  0.1226E+02
   4.939  0.9346E+00  0.1227E+02
   4.949  0.8989E+00  0.1228E+02
   4.959  0.8775E+00  0.1228E+02
   4.969  0.8689E+00  0.1229E+02
   4.979  0.8603E+00  0.1230E+02
   4.989  0.8518E+00  0.1231E+02
   4.999  0.8432E+00  0.1232E+02
   5.009  0.8346E+00  0.1233E+02
   5.019  0.8261E+00  0.1234E+02
   5.029  0.8175E+00  0.1234E+02
   5.039  0.8039E+00  0.1235E+02
   5.049  0.7950E+00  0.1236E+02
   5.059  0.7862E+00  0.1237E+02
   5.069  0.6520E+00  0.1238E+02
   5.079  0.6516E+00  0.1238E+02
   5.089  0.6513E+00  0.1239E+02
   5.099  0.6513E+00  0.1239E+02
   5.109  0.6513E+00  0.1240E+02
   5.119  0.6513E+00  0.1241E+02
   5.129  0.6513E+00  0.1241E+02
   5.139  0.6513E+00  0.1242E+02
   5.149  0.6513E+00  0.1243E+02
   5.159  0.6513E+00  0.1243E+02
   5.169  0.6513E+00  0.1244E+02
   5.179  0.6513E+00  0.1245E+02
   5.189  0.6513E+00  0.1245E+02
   5.199  0.6514E+00  0.1246E+02
   5.209  0.6515E+00  0.1247E+02
   5.219  0.6517E+00  0.1247E+02
   5.229  0.6520E+00  0.1248E+02
   5.239  0.6515E+00  0.1249E+02
   5.249  0.6515E+00  0.1249E+02
   5.259  0.6515E+00  0.1250E+02
   5.269  0.6515E+00  0.1251E+02
   5.279  0.6515E+00  0.1251E+02
   5.289  0.6516E+00  0.1252E+02
   5.299  0.6517E+00  0.1252E+02
   5.309  0.6519E+00  0.1253E+02
   5.319  0.6521E+00  0.1254E+02
   5.329  0.6522E+00  0.1254E+02
   5.339  0.6524E+00  0.1255E+02
   5.349  0.6526E+00  0.1256E+02
   5.359  0.6528E+00  0.1256E+02
   5.369  0.6531E+00  0.1257E+02
   5.379  0.6533E+00  0.1258E+02
   5.389  0.6533E+00  0.1258E+02
   5.399  0.6532E+00  0.1259E+02
   5.409  0.6530E+00  0.1260E+02
   5.419  0.6530E+00  0.1260E+02
   5.429  0.6532E+00  0.1261E+02
   5.439  0.6533E+00  0.1262E+02
   5.449  0.6535E+00  0.1262E+02
   5.459  0.6537E+00  0.1263E+02
   5.469  0.6538E+00  0.1264E+02
   5.479  0.6540E+00  0.1264E+02
   5.489  0.6542E+00  0.1265E+02
   5.499  0.6545E+00  0.1266E+02
   5.509  0.6548E+00  0.1266E+02
   5.519  0.6552E+00  0.1267E+02
   5.529  0.6555E+00  0.1268E+02
   5.539  0.6558E+00  0.1268E+02
   5.549  0.6562E+00  0.1269E+02
   5.559  0.6565E+00  0.1269E+02
   5.569  0.6567E+00  0.1270E+02
   5.579  0.6572E+00  0.1271E+02
   5.589  0.6578E+00  0.1271E+02
   5.599  0.6588E+00  0.1272E+02
   5.609  0.6597E+00  0.1273E+02
   5.619  0.6607E+00  0.1273E+02
   5.629  0.6617E+00  0.1274E+02
   5.639  0.6626E+00  0.1275E+02
   5.649  0.6636E+00  0.1275E+02
   5.659  0.6646E+00  0.1276E+02
   5.669  0.6656E+00  0.1277E+02
   5.679  0.6668E+00  0.1277E+02
   5.689  0.6686E+00  0.1278E+02
   5.699  0.6703E+00  0.1279E+02
   5.709  0.6721E+00  0.1279E+02
   5.719  0.6739E+00  0.1280E+02
   5.729  0.6756E+00  0.1281E+02
   5.739  0.6774E+00  0.1281E+02
   5.749  0.6792E+00  0.1282E+02
   5.759  0.6810E+00  0.1283E+02
   5.769  0.6828E+00  0.1283E+02
   5.779  0.6846E+00  0.1284E+02
   5.789  0.6863E+00  0.1285E+02
   5.799  0.6881E+00  0.1286E+02
   5.809  0.6900E+00  0.1286E+02
   5.819  0.6918E+00  0.1287E+02
   5.829  0.6936E+00  0.1288E+02
   5.839  0.7030E+00  0.1288E+02
   5.849  0.7126E+00  0.1289E+02
   5.859  0.7224E+00  0.1290E+02
   5.869  0.7845E+00  0.1290E+02
   5.879  0.1003E+01  0.1291E+02
   5.889  0.1110E+01  0.1292E+02
   5.899  0.1212E+01  0.1294E+02
   5.909  0.1293E+01  0.1295E+02
   5.919  0.1374E+01  0.1296E+02
   5.929  0.1441E+01  0.1298E+02
   5.939  0.1443E+01  0.1299E+02
   5.949  0.1444E+01  0.1300E+02
   5.959  0.1335E+01  0.1302E+02
   5.969  0.1252E+01  0.1303E+02
   5.979  0.1207E+01  0.1304E+02
   5.989  0.1164E+01  0.1306E+02
   5.999  0.1101E+01  0.1307E+02
   6.009  0.9727E+00  0.1308E+02
   6.019  0.9775E+00  0.1309E+02
   6.029  0.9823E+00  0.1310E+02
   6.039  0.9871E+00  0.1311E+02
   6.049  0.9920E+00  0.1312E+02
   6.059  0.9968E+00  0.1313E+02
   6.069  0.1003E+01  0.1314E+02
   6.079  0.1010E+01  0.1315E+02
   6.089  0.1017E+01  0.1316E+02
   6.099  0.1024E+01  0.1317E+02
   6.109  0.1029E+01  0.1318E+02
   6.119  0.1018E+01  0.1319E+02
   6.129  0.1008E+01  0.1320E+02
   6.139  0.9969E+00  0.1321E+02
   6.149  0.9853E+00  0.1322E+02
   6.159  0.9790E+00  0.1323E+02
   6.169  0.9757E+00  0.1324E+02
   6.179  0.9724E+00  0.1325E+02
   6.189  0.9691E+00  0.1326E+02
   6.199  0.9658E+00  0.1327E+02
   6.209  0.9411E+00  0.1328E+02
   6.219  0.9218E+00  0.1329E+02
   6.229  0.9060E+00  0.1329E+02
   6.239  0.8896E+00  0.1330E+02
   6.249  0.8729E+00  0.1331E+02
   6.259  0.8651E+00  0.1332E+02
   6.269  0.8643E+00  0.1333E+02
   6.279  0.8635E+00  0.1334E+02
   6.289  0.8628E+00  0.1335E+02
   6.299  0.8620E+00  0.1336E+02
   6.309  0.8613E+00  0.1336E+02
   6.319  0.8606E+00  0.1337E+02
   6.329  0.8599E+00  0.1338E+02
   6.339  0.8592E+00  0.1339E+02
   6.349  0.8585E+00  0.1340E+02
   6.359  0.8578E+00  0.1341E+02
   6.369  0.8570E+00  0.1342E+02
   6.379  0.8324E+00  0.1342E+02
   6.389  0.8193E+00  0.1343E+02
   6.399  0.8192E+00  0.1344E+02
   6.409  0.8191E+00  0.1345E+02
   6.419  0.8186E+00  0.1346E+02
   6.429  0.8177E+00  0.1347E+02
   6.439  0.8167E+00  0.1347E+02
   6.449  0.8158E+00  0.1348E+02
   6.459  0.8144E+00  0.1349E+02
   6.469  0.8133E+00  0.1350E+02
   6.479  0.8121E+00  0.1351E+02
   6.489  0.8110E+00  0.1351E+02
   6.499  0.8097E+00  0.1352E+02
   6.509  0.8078E+00  0.1353E+02
   6.519  0.8059E+00  0.1354E+02
   6.529  0.8040E+00  0.1355E+02
   6.539  0.8020E+00  0.1355E+02
   6.549  0.8000E+00  0.1356E+02
   6.559  0.7981E+00  0.1357E+02
   6.569  0.7962E+00  0.1358E+02
   6.579  0.7943E+00  0.1359E+02
   6.589  0.7923E+00  0.1359E+02
   6.599  0.7904E+00  0.1360E+02
   6.609  0.7805E+00  0.1361E+02
   6.619  0.7710E+00  0.1362E+02
   6.629  0.7632E+00  0.1363E+02
   6.639  0.7556E+00  0.1363E+02
   6.649  0.7541E+00  0.1364E+02
   6.659  0.7530E+00  0.1365E+02
   6.669  0.7519E+00  0.1366E+02
   6.679  0.7508E+00  0.1366E+02
   6.689  0.7497E+00  0.1367E+02
   6.699  0.7487E+00  0.1368E+02
   6.709  0.7479E+00  0.1369E+02
   6.719  0.7470E+00  0.1369E+02
   6.729  0.7462E+00  0.1370E+02
   6.739  0.7453E+00  0.1371E+02
   6.749  0.7444E+00  0.1372E+02
   6.759  0.7431E+00  0.1372E+02
   6.769  0.7372E+00  0.1373E+02
   6.779  0.7312E+00  0.1374E+02
   6.789  0.7303E+00  0.1374E+02
   6.799  0.7293E+00  0.1375E+02
   6.809  0.7284E+00  0.1376E+02
   6.819  0.7275E+00  0.1377E+02
   6.829  0.7265E+00  0.1377E+02
   6.839  0.7256E+00  0.1378E+02
   6.849  0.7246E+00  0.1379E+02
   6.859  0.7237E+00  0.1380E+02
   6.869  0.7229E+00  0.1380E+02
   6.879  0.7220E+00  0.1381E+02
   6.889  0.7211E+00  0.1382E+02
   6.899  0.7202E+00  0.1382E+02
   6.909  0.7193E+00  0.1383E+02
   6.919  0.7185E+00  0.1384E+02
   6.929  0.7176E+00  0.1385E+02
   6.939  0.7167E+00  0.1385E+02
   6.949  0.7158E+00  0.1386E+02
   6.959  0.7150E+00  0.1387E+02
   6.969  0.7141E+00  0.1387E+02
   6.979  0.7133E+00  0.1388E+02
   6.989  0.7125E+00  0.1389E+02
   6.999  0.7117E+00  0.1390E+02
   7.009  0.7110E+00  0.1390E+02
   7.019  0.7102E+00  0.1391E+02
   7.029  0.7094E+00  0.1392E+02
   7.039  0.7087E+00  0.1392E+02
   7.049  0.7079E+00  0.1393E+02
   7.059  0.7072E+00  0.1394E+02
   7.069  0.7064E+00  0.1395E+02
   7.079  0.7056E+00  0.1395E+02
   7.089  0.7049E+00  0.1396E+02
   7.099  0.7042E+00  0.1397E+02
   7.109  0.7035E+00  0.1397E+02
   7.119  0.7026E+00  0.1398E+02
   7.129  0.7016E+00  0.1399E+02
   7.139  0.6965E+00  0.1400E+02
   7.149  0.6914E+00  0.1400E+02
   7.159  0.6884E+00  0.1401E+02
   7.169  0.6880E+00  0.1402E+02
   7.179  0.6876E+00  0.1402E+02
   7.189  0.6872E+00  0.1403E+02
   7.199  0.6868E+00  0.1404E+02
   7.209  0.6863E+00  0.1404E+02
   7.219  0.6858E+00  0.1405E+02
   7.229  0.6853E+00  0.1406E+02
   7.239  0.6848E+00  0.1406E+02
   7.249  0.6842E+00  0.1407E+02
   7.259  0.6820E+00  0.1408E+02
   7.269  0.6811E+00  0.1408E+02
   7.279  0.6802E+00  0.1409E+02
   7.289  0.6794E+00  0.1410E+02
   7.299  0.6785E+00  0.1410E+02
   7.309  0.6777E+00  0.1411E+02
   7.319  0.6769E+00  0.1412E+02
   7.329  0.6760E+00  0.1413E+02
   7.339  0.6751E+00  0.1413E+02
   7.349  0.6743E+00  0.1414E+02
   7.359  0.6734E+00  0.1415E+02
   7.369  0.6725E+00  0.1415E+02
   7.379  0.6717E+00  0.1416E+02
   7.389  0.6708E+00  0.1417E+02
   7.399  0.6699E+00  0.1417E+02
   7.409  0.6685E+00  0.1418E+02
   7.419  0.6674E+00  0.1419E+02
   7.429  0.6663E+00  0.1419E+02
   7.439  0.6652E+00  0.1420E+02
   7.449  0.6642E+00  0.1421E+02
   7.459  0.6631E+00  0.1421E+02
   7.469  0.6621E+00  0.1422E+02
   7.479  0.6612E+00  0.1423E+02
   7.489  0.6602E+00  0.1423E+02
   7.499  0.6597E+00  0.1424E+02
   7.509  0.6592E+00  0.1425E+02
   7.519  0.6588E+00  0.1425E+02
   7.529  0.6584E+00  0.1426E+02
   7.539  0.6580E+00  0.1427E+02
   7.549  0.6576E+00  0.1427E+02
   7.559  0.6572E+00  0.1428E+02
   7.569  0.6568E+00  0.1428E+02
   7.579  0.6565E+00  0.1429E+02
   7.589  0.6561E+00  0.1430E+02
   7.599  0.6557E+00  0.1430E+02
   7.609  0.6553E+00  0.1431E+02
   7.619  0.6550E+00  0.1432E+02
   7.629  0.6546E+00  0.1432E+02
   7.639  0.6542E+00  0.1433E+02
   7.649  0.6538E+00  0.1434E+02
   7.659  0.6535E+00  0.1434E+02
   7.669  0.6531E+00  0.1435E+02
   7.679  0.6527E+00  0.1436E+02
   7.689  0.6524E+00  0.1436E+02
   7.699  0.6520E+00  0.1437E+02
   7.709  0.6516E+00  0.1438E+02
   7.719  0.6536E+00  0.1438E+02
   7.729  0.6532E+00  0.1439E+02
   7.739  0.6529E+00  0.1440E+02
   7.749  0.6533E+00  0.1440E+02
   7.759  0.6542E+00  0.1441E+02
   7.769  0.6551E+00  0.1442E+02
   7.779  0.6514E+00  0.1442E+02
   7.789  0.6515E+00  0.1443E+02
   7.799  0.6517E+00  0.1444E+02
   7.809  0.6518E+00  0.1444E+02
   7.819  0.6516E+00  0.1445E+02
   7.829  0.6517E+00  0.1445E+02
   7.839  0.6517E+00  0.1446E+02
   7.849  0.6518E+00  0.1447E+02
   7.859  0.6518E+00  0.1447E+02
   7.869  0.6511E+00  0.1448E+02
   7.879  0.6503E+00  0.1449E+02
   7.889  0.6493E+00  0.1449E+02
   7.899  0.6484E+00  0.1450E+02
   7.909  0.6475E+00  0.1451E+02
   7.919  0.6465E+00  0.1451E+02
   7.929  0.6456E+00  0.1452E+02
   7.939  0.6447E+00  0.1453E+02
   7.949  0.6438E+00  0.1453E+02
   7.959  0.6428E+00  0.1454E+02
   7.969  0.6419E+00  0.1455E+02
   7.979  0.6410E+00  0.1455E+02
   7.989  0.6401E+00  0.1456E+02
   7.999  0.6391E+00  0.1456E+02
   8.009  0.6382E+00  0.1457E+02
   8.019  0.6373E+00  0.1458E+02
   8.029  0.6363E+00  0.1458E+02
   8.039  0.6358E+00  0.1459E+02
   8.049  0.6353E+00  0.1460E+02
   8.059  0.6349E+00  0.1460E+02
   8.069  0.6344E+00  0.1461E+02
   8.079  0.6339E+00  0.1462E+02
   8.089  0.6334E+00  0.1462E+02
   8.099  0.6326E+00  0.1463E+02
   8.109  0.6320E+00  0.1463E+02
   8.119  0.6315E+00  0.1464E+02
   8.129  0.6311E+00  0.1465E+02
   8.139  0.6308E+00  0.1465E+02
   8.149  0.6304E+00  0.1466E+02
   8.159  0.6301E+00  0.1467E+02
   8.169  0.6297E+00  0.1467E+02
   8.179  0.6294E+00  0.1468E+02
   8.189  0.6290E+00  0.1468E+02
   8.199  0.6287E+00  0.1469E+02
   8.209  0.6284E+00  0.1470E+02
   8.219  0.6281E+00  0.1470E+02
   8.229  0.6278E+00  0.1471E+02
   8.239  0.6277E+00  0.1472E+02
   8.249  0.6282E+00  0.1472E+02
   8.259  0.6288E+00  0.1473E+02
   8.269  0.6294E+00  0.1474E+02
   8.279  0.6299E+00  0.1474E+02
   8.289  0.6305E+00  0.1475E+02
   8.299  0.6311E+00  0.1475E+02
   8.309  0.6433E+00  0.1476E+02
   8.319  0.6462E+00  0.1477E+02
   8.329  0.6487E+00  0.1477E+02
   8.339  0.6508E+00  0.1478E+02
   8.349  0.6531E+00  0.1479E+02
   8.359  0.6555E+00  0.1479E+02
   8.369  0.6578E+00  0.1480E+02
   8.379  0.6603E+00  0.1481E+02
   8.389  0.6620E+00  0.1481E+02
   8.399  0.6629E+00  0.1482E+02
   8.409  0.6639E+00  0.1483E+02
   8.419  0.6649E+00  0.1483E+02
   8.429  0.6659E+00  0.1484E+02
   8.439  0.6669E+00  0.1485E+02
   8.449  0.6679E+00  0.1485E+02
   8.459  0.6689E+00  0.1486E+02
   8.469  0.6699E+00  0.1487E+02
   8.479  0.6704E+00  0.1487E+02
   8.489  0.6703E+00  0.1488E+02
   8.499  0.6711E+00  0.1489E+02
   8.509  0.6719E+00  0.1489E+02
   8.519  0.6727E+00  0.1490E+02
   8.529  0.6804E+00  0.1491E+02
   8.539  0.7042E+00  0.1491E+02
   8.549  0.7274E+00  0.1492E+02
   8.559  0.7362E+00  0.1493E+02
   8.569  0.7408E+00  0.1494E+02
   8.579  0.7453E+00  0.1494E+02
   8.589  0.8199E+00  0.1495E+02
   8.599  0.9218E+00  0.1496E+02
   8.609  0.1024E+01  0.1497E+02
   8.619  0.1126E+01  0.1498E+02
   8.629  0.1022E+01  0.1499E+02
   8.639  0.1029E+01  0.1500E+02
   8.649  0.1036E+01  0.1501E+02
   8.659  0.1039E+01  0.1502E+02
   8.669  0.1043E+01  0.1503E+02
   8.679  0.1046E+01  0.1504E+02
   8.689  0.1077E+01  0.1505E+02
   8.699  0.1120E+01  0.1506E+02
   8.709  0.1166E+01  0.1508E+02
   8.719  0.1212E+01  0.1509E+02
   8.729  0.1256E+01  0.1510E+02
   8.739  0.1300E+01  0.1511E+02
   8.749  0.1201E+01  0.1512E+02
   8.759  0.9980E+00  0.1514E+02
   8.769  0.9825E+00  0.1514E+02
   8.779  0.9671E+00  0.1515E+02
   8.789  0.9517E+00  0.1516E+02
   8.799  0.9363E+00  0.1517E+02
   8.809  0.9209E+00  0.1518E+02
   8.819  0.9055E+00  0.1519E+02
   8.829  0.8896E+00  0.1520E+02
   8.839  0.8740E+00  0.1521E+02
   8.849  0.8585E+00  0.1522E+02
   8.859  0.8433E+00  0.1523E+02
   8.869  0.8285E+00  0.1524E+02
   8.879  0.8145E+00  0.1524E+02
   8.889  0.8496E+00  0.1525E+02
   8.899  0.8327E+00  0.1526E+02
   8.909  0.8159E+00  0.1527E+02
   8.919  0.7936E+00  0.1528E+02
   8.929  0.7847E+00  0.1528E+02
   8.939  0.7759E+00  0.1529E+02
   8.949  0.7670E+00  0.1530E+02
   8.959  0.7588E+00  0.1531E+02
   8.969  0.7509E+00  0.1532E+02
   8.979  0.7430E+00  0.1532E+02
   8.989  0.7349E+00  0.1533E+02
   8.999  0.7266E+00  0.1534E+02
   9.009  0.7181E+00  0.1534E+02
   9.019  0.7097E+00  0.1535E+02
   9.029  0.7013E+00  0.1536E+02
   9.039  0.6929E+00  0.1537E+02
   9.049  0.6844E+00  0.1537E+02
   9.059  0.6760E+00  0.1538E+02
   9.069  0.6676E+00  0.1539E+02
   9.079  0.6592E+00  0.1539E+02
   9.089  0.6517E+00  0.1540E+02
   9.099  0.6520E+00  0.1541E+02
   9.109  0.6556E+00  0.1541E+02
   9.119  0.6591E+00  0.1542E+02
   9.129  0.6627E+00  0.1543E+02
   9.139  0.6663E+00  0.1543E+02
   9.149  0.6723E+00  0.1544E+02
   9.159  0.6730E+00  0.1545E+02
   9.169  0.7335E+00  0.1545E+02
   9.179  0.7299E+00  0.1546E+02
   9.189  0.7263E+00  0.1547E+02
   9.199  0.7228E+00  0.1547E+02
   9.209  0.7192E+00  0.1548E+02
   9.219  0.7156E+00  0.1549E+02
   9.229  0.7120E+00  0.1550E+02
   9.239  0.5812E+00  0.1550E+02
   9.249  0.5799E+00  0.1551E+02
   9.259  0.5786E+00  0.1551E+02
   9.269  0.5773E+00  0.1552E+02
   9.279  0.5728E+00  0.1553E+02
   9.289  0.5731E+00  0.1553E+02
   9.299  0.5762E+00  0.1554E+02
   9.309  0.5805E+00  0.1554E+02
   9.319  0.5792E+00  0.1555E+02
   9.329  0.5781E+00  0.1555E+02
   9.339  0.5769E+00  0.1556E+02
   9.349  0.5757E+00  0.1557E+02
   9.359  0.5745E+00  0.1557E+02
   9.369  0.5734E+00  0.1558E+02
   9.379  0.5743E+00  0.1558E+02
   9.389  0.6135E+00  0.1559E+02
   9.399  0.6026E+00  0.1560E+02
   9.409  0.5916E+00  0.1560E+02
   9.419  0.5863E+00  0.1561E+02
   9.429  0.5848E+00  0.1561E+02
   9.439  0.5833E+00  0.1562E+02
   9.449  0.5818E+00  0.1562E+02
   9.459  0.5803E+00  0.1563E+02
   9.469  0.5789E+00  0.1564E+02
   9.479  0.5774E+00  0.1564E+02
   9.489  0.5759E+00  0.1565E+02
   9.499  0.5744E+00  0.1565E+02
   9.509  0.5729E+00  0.1566E+02
   9.519  0.5714E+00  0.1566E+02
   9.529  0.5697E+00  0.1567E+02
   9.539  0.4963E+00  0.1568E+02
   9.549  0.4959E+00  0.1568E+02
   9.559  0.4956E+00  0.1569E+02
   9.569  0.4953E+00  0.1569E+02
   9.579  0.4950E+00  0.1570E+02
   9.589  0.4946E+00  0.1570E+02
   9.599  0.5821E+00  0.1571E+02
   9.609  0.5679E+00  0.1571E+02
   9.619  0.5537E+00  0.1572E+02
   9.629  0.4210E+00  0.1572E+02
   9.639  0.4051E+00  0.1573E+02
   9.649  0.3892E+00  0.1573E+02
   9.659  0.3737E+00  0.1573E+02
   9.669  0.3609E+00  0.1574E+02
   9.679  0.3481E+00  0.1574E+02
   9.689  0.5094E+00  0.1575E+02
   9.699  0.2053E+00  0.1575E+02
   9.709  0.2045E+00  0.1575E+02
   9.719  0.2038E+00  0.1576E+02
   9.729  0.2030E+00  0.1576E+02
   9.739  0.2022E+00  0.1576E+02
   9.749  0.2014E+00  0.1576E+02
   9.759  0.2006E+00  0.1576E+02
   9.769  0.1998E+00  0.1577E+02
   9.779  0.1991E+00  0.1577E+02
   9.789  0.1983E+00  0.1577E+02
   9.799  0.1975E+00  0.1577E+02
   9.809  0.1967E+00  0.1577E+02
   9.819  0.1959E+00  0.1578E+02
   9.829  0.1951E+00  0.1578E+02
   9.839  0.1944E+00  0.1578E+02
   9.849  0.1936E+00  0.1578E+02
   9.859  0.1928E+00  0.1578E+02
   9.869  0.1920E+00  0.1579E+02
   9.879  0.1912E+00  0.1579E+02
   9.889  0.1904E+00  0.1579E+02
   9.899  0.1897E+00  0.1579E+02
   9.909  0.1889E+00  0.1579E+02
   9.919  0.1881E+00  0.1580E+02
   9.929  0.1873E+00  0.1580E+02
   9.939  0.1865E+00  0.1580E+02
   9.949  0.1857E+00  0.1580E+02
   9.959  0.1850E+00  0.1580E+02
   9.969  0.1842E+00  0.1580E+02
   9.979  0.1834E+00  0.1581E+02
   9.989  0.1867E+00  0.1581E+02
   9.999  0.1918E+00  0.1581E+02
  10.009  0.1979E+00  0.1581E+02
  10.019  0.2040E+00  0.1581E+02
  10.029  0.2100E+00  0.1582E+02
  10.039  0.2157E+00  0.1582E+02
  10.049  0.2210E+00  0.1582E+02
  10.059  0.2262E+00  0.1582E+02
  10.069  0.2315E+00  0.1582E+02
  10.079  0.2368E+00  0.1583E+02
  10.089  0.2421E+00  0.1583E+02
  10.099  0.1705E+00  0.1583E+02
  10.109  0.1690E+00  0.1583E+02
  10.119  0.1674E+00  0.1583E+02
  10.129  0.1659E+00  0.1584E+02
  10.139  0.1644E+00  0.1584E+02
  10.149  0.1635E+00  0.1584E+02
  10.159  0.1627E+00  0.1584E+02
  10.169  0.1618E+00  0.1584E+02
  10.179  0.1609E+00  0.1584E+02
  10.189  0.1601E+00  0.1585E+02
  10.199  0.1592E+00  0.1585E+02
  10.209  0.1583E+00  0.1585E+02
  10.219  0.1575E+00  0.1585E+02
  10.229  0.1566E+00  0.1585E+02
  10.239  0.1557E+00  0.1585E+02
  10.249  0.1549E+00  0.1586E+02
  10.259  0.1540E+00  0.1586E+02
  10.269  0.1531E+00  0.1586E+02
  10.279  0.1523E+00  0.1586E+02
  10.289  0.1514E+00  0.1586E+02
  10.299  0.1505E+00  0.1586E+02
  10.309  0.1497E+00  0.1586E+02
  10.319  0.1488E+00  0.1587E+02
  10.329  0.1479E+00  0.1587E+02
  10.339  0.1471E+00  0.1587E+02
  10.349  0.1462E+00  0.1587E+02
  10.359  0.1453E+00  0.1587E+02
  10.369  0.1445E+00  0.1587E+02
  10.379  0.1436E+00  0.1587E+02
  10.389  0.1427E+00  0.1588E+02
  10.399  0.1419E+00  0.1588E+02
  10.409  0.1407E+00  0.1588E+02
  10.419  0.1398E+00  0.1588E+02
  10.429  0.1390E+00  0.1588E+02
  10.439  0.1381E+00  0.1588E+02
  10.449  0.1372E+00  0.1588E+02
  10.459  0.1362E+00  0.1589E+02
  10.469  0.1351E+00  0.1589E+02
  10.479  0.1340E+00  0.1589E+02
  10.489  0.1329E+00  0.1589E+02
  10.499  0.1318E+00  0.1589E+02
  10.509  0.1307E+00  0.1589E+02
  10.519  0.1295E+00  0.1589E+02
  10.529  0.1284E+00  0.1590E+02
  10.539  0.1273E+00  0.1590E+02
  10.549  0.1262E+00  0.1590E+02
  10.559  0.1251E+00  0.1590E+02
  10.569  0.1240E+00  0.1590E+02
  10.579  0.1229E+00  0.1590E+02
  10.589  0.1218E+00  0.1590E+02
  10.599  0.1207E+00  0.1590E+02
  10.609  0.1195E+00  0.1591E+02
  10.619  0.1184E+00  0.1591E+02
  10.629  0.1173E+00  0.1591E+02
  10.639  0.1162E+00  0.1591E+02
  10.649  0.1151E+00  0.1591E+02
  10.659  0.1782E+00  0.1591E+02
  10.669  0.2416E+00  0.1591E+02
  10.679  0.3050E+00  0.1592E+02
  10.689  0.1109E+00  0.1592E+02
  10.699  0.1095E+00  0.1592E+02
  10.709  0.1532E+00  0.1592E+02
  10.719  0.1497E+00  0.1592E+02
  10.729  0.1463E+00  0.1592E+02
  10.739  0.1429E+00  0.1593E+02
  10.749  0.1394E+00  0.1593E+02
  10.759  0.1360E+00  0.1593E+02
  10.769  0.1325E+00  0.1593E+02
  10.779  0.1291E+00  0.1593E+02
  10.789  0.1257E+00  0.1593E+02
  10.799  0.1222E+00  0.1593E+02
  10.809  0.1188E+00  0.1593E+02
  10.819  0.1153E+00  0.1594E+02
  10.829  0.1119E+00  0.1594E+02
  10.839  0.1084E+00  0.1594E+02
  10.849  0.1054E+00  0.1594E+02
  10.859  0.1048E+00  0.1594E+02
  10.869  0.1042E+00  0.1594E+02
  10.879  0.1035E+00  0.1594E+02
  10.889  0.1029E+00  0.1594E+02
  10.899  0.1023E+00  0.1594E+02
  10.909  0.1016E+00  0.1595E+02
  10.919  0.1010E+00  0.1595E+02
  10.929  0.1004E+00  0.1595E+02
  10.939  0.9975E-01  0.1595E+02
  10.949  0.9912E-01  0.1595E+02
  10.959  0.9849E-01  0.1595E+02
  10.969  0.9786E-01  0.1595E+02
  10.979  0.9723E-01  0.1595E+02
  10.989  0.9659E-01  0.1595E+02
  10.999  0.9596E-01  0.1595E+02
  11.009  0.9533E-01  0.1596E+02
  11.019  0.9470E-01  0.1596E+02
  11.029  0.9407E-01  0.1596E+02
  11.039  0.9344E-01  0.1596E+02
  11.049  0.9281E-01  0.1596E+02
  11.059  0.9218E-01  0.1596E+02
  11.069  0.9155E-01  0.1596E+02
  11.079  0.9092E-01  0.1596E+02
  11.089  0.9028E-01  0.1596E+02
  11.099  0.8965E-01  0.1596E+02
  11.109  0.8902E-01  0.1596E+02
  11.119  0.8839E-01  0.1597E+02
  11.129  0.8776E-01  0.1597E+02
  11.139  0.8713E-01  0.1597E+02
  11.149  0.9623E-01  0.1597E+02
  11.159  0.1110E+00  0.1597E+02
  11.169  0.1257E+00  0.1597E+02
  11.179  0.1404E+00  0.1597E+02
  11.189  0.1551E+00  0.1597E+02
  11.199  0.1699E+00  0.1597E+02
  11.209  0.1846E+00  0.1598E+02
  11.219  0.1993E+00  0.1598E+02
  11.229  0.2140E+00  0.1598E+02
  11.239  0.8525E+00  0.1598E+02
  11.249  0.9291E+00  0.1599E+02
