#  E (eV)   dos(E)     Int dos(E) EFermi =   -2.564 eV
 -21.615  0.0000E+00  0.0000E+00
 -21.605  0.2639E+00  0.2633E-02
 -21.595  0.3083E+00  0.5494E-02
 -21.585  0.3493E+00  0.8798E-02
 -21.575  0.2971E+00  0.1201E-01
 -21.565  0.3126E+00  0.1506E-01
 -21.555  0.3282E+00  0.1827E-01
 -21.545  0.3160E+00  0.2161E-01
 -21.535  0.3124E+00  0.2475E-01
 -21.525  0.3101E+00  0.2786E-01
 -21.515  0.3180E+00  0.3100E-01
 -21.505  0.3259E+00  0.3422E-01
 -21.495  0.3298E+00  0.3751E-01
 -21.485  0.3124E+00  0.4071E-01
 -21.475  0.3138E+00  0.4384E-01
 -21.465  0.3152E+00  0.4698E-01
 -21.455  0.3172E+00  0.5014E-01
 -21.445  0.3220E+00  0.5334E-01
 -21.435  0.3267E+00  0.5658E-01
 -21.425  0.3202E+00  0.5985E-01
 -21.415  0.3163E+00  0.6303E-01
 -21.405  0.3140E+00  0.6618E-01
 -21.395  0.3158E+00  0.6933E-01
 -21.385  0.3177E+00  0.7249E-01
 -21.375  0.3195E+00  0.7568E-01
 -21.365  0.3218E+00  0.7889E-01
 -21.355  0.3250E+00  0.8212E-01
 -21.345  0.3238E+00  0.8538E-01
 -21.335  0.3173E+00  0.8857E-01
 -21.325  0.3168E+00  0.9174E-01
 -21.315  0.3162E+00  0.9491E-01
 -21.305  0.3165E+00  0.9807E-01
 -21.295  0.3182E+00  0.1012E+00
 -21.285  0.3199E+00  0.1044E+00
 -21.275  0.3215E+00  0.1076E+00
 -21.265  0.3232E+00  0.1109E+00
 -21.255  0.3251E+00  0.1141E+00
 -21.245  0.3205E+00  0.1173E+00
 -21.235  0.3182E+00  0.1205E+00
 -21.225  0.3172E+00  0.1237E+00
 -21.215  0.3176E+00  0.1269E+00
 -21.205  0.3179E+00  0.1301E+00
 -21.195  0.3182E+00  0.1332E+00
 -21.185  0.3192E+00  0.1364E+00
 -21.175  0.3206E+00  0.1396E+00
 -21.165  0.3220E+00  0.1428E+00
 -21.155  0.3234E+00  0.1461E+00
 -21.145  0.3248E+00  0.1493E+00
 -21.135  0.3213E+00  0.1525E+00
 -21.125  0.3191E+00  0.1557E+00
 -21.115  0.3185E+00  0.1589E+00
 -21.105  0.3180E+00  0.1621E+00
 -21.095  0.3183E+00  0.1653E+00
 -21.085  0.3189E+00  0.1685E+00
 -21.075  0.3195E+00  0.1717E+00
 -21.065  0.3201E+00  0.1749E+00
 -21.055  0.3207E+00  0.1781E+00
 -21.045  0.3217E+00  0.1813E+00
 -21.035  0.3229E+00  0.1845E+00
 -21.025  0.3240E+00  0.1877E+00
 -21.015  0.3252E+00  0.1910E+00
 -21.005  0.3210E+00  0.1942E+00
 -20.995  0.3193E+00  0.1974E+00
 -20.985  0.3191E+00  0.2006E+00
 -20.975  0.3191E+00  0.2038E+00
 -20.965  0.3192E+00  0.2070E+00
 -20.955  0.3193E+00  0.2102E+00
 -20.945  0.3199E+00  0.2134E+00
 -20.935  0.3206E+00  0.2166E+00
 -20.925  0.3212E+00  0.2198E+00
 -20.915  0.3218E+00  0.2230E+00
 -20.905  0.3225E+00  0.2262E+00
 -20.895  0.3231E+00  0.2294E+00
 -20.885  0.3241E+00  0.2327E+00
 -20.875  0.3243E+00  0.2359E+00
 -20.865  0.3212E+00  0.2392E+00
 -20.855  0.3207E+00  0.2424E+00
 -20.845  0.3202E+00  0.2456E+00
 -20.835  0.3198E+00  0.2488E+00
 -20.825  0.3200E+00  0.2520E+00
 -20.815  0.3202E+00  0.2552E+00
 -20.805  0.3205E+00  0.2584E+00
 -20.795  0.3208E+00  0.2616E+00
 -20.785  0.3212E+00  0.2648E+00
 -20.775  0.3218E+00  0.2680E+00
 -20.765  0.3224E+00  0.2712E+00
 -20.755  0.3230E+00  0.2744E+00
 -20.745  0.3236E+00  0.2777E+00
 -20.735  0.3242E+00  0.2809E+00
 -20.725  0.3248E+00  0.2842E+00
 -20.715  0.3227E+00  0.2874E+00
 -20.705  0.3217E+00  0.2906E+00
 -20.695  0.3211E+00  0.2938E+00
 -20.685  0.3211E+00  0.2971E+00
 -20.675  0.3210E+00  0.3003E+00
 -20.665  0.3209E+00  0.3035E+00
 -20.655  0.3211E+00  0.3067E+00
 -20.645  0.3214E+00  0.3099E+00
 -20.635  0.3216E+00  0.3131E+00
 -20.625  0.3220E+00  0.3163E+00
 -20.615  0.3224E+00  0.3195E+00
 -20.605  0.3227E+00  0.3228E+00
 -20.595  0.3232E+00  0.3260E+00
 -20.585  0.3238E+00  0.3292E+00
 -20.575  0.3244E+00  0.3325E+00
 -20.565  0.3249E+00  0.3357E+00
 -20.555  0.3255E+00  0.3390E+00
 -20.545  0.3232E+00  0.3422E+00
 -20.535  0.3225E+00  0.3454E+00
 -20.525  0.3221E+00  0.3487E+00
 -20.515  0.3217E+00  0.3519E+00
 -20.505  0.3219E+00  0.3551E+00
 -20.495  0.3220E+00  0.3583E+00
 -20.485  0.3221E+00  0.3615E+00
 -20.475  0.3222E+00  0.3648E+00
 -20.465  0.3224E+00  0.3680E+00
 -20.455  0.3227E+00  0.3712E+00
 -20.445  0.3230E+00  0.3744E+00
 -20.435  0.3234E+00  0.3777E+00
 -20.425  0.3237E+00  0.3809E+00
 -20.415  0.3241E+00  0.3842E+00
 -20.405  0.3245E+00  0.3874E+00
 -20.395  0.3249E+00  0.3906E+00
 -20.385  0.3254E+00  0.3939E+00
 -20.375  0.3259E+00  0.3972E+00
 -20.365  0.3246E+00  0.4004E+00
 -20.355  0.3238E+00  0.4036E+00
 -20.345  0.3232E+00  0.4069E+00
 -20.335  0.3231E+00  0.4101E+00
 -20.325  0.3230E+00  0.4133E+00
 -20.315  0.3228E+00  0.4166E+00
 -20.305  0.3229E+00  0.4198E+00
 -20.295  0.3231E+00  0.4230E+00
 -20.285  0.3233E+00  0.4263E+00
 -20.275  0.3235E+00  0.4295E+00
 -20.265  0.3237E+00  0.4327E+00
 -20.255  0.3239E+00  0.4360E+00
 -20.245  0.3242E+00  0.4392E+00
 -20.235  0.3246E+00  0.4425E+00
 -20.225  0.3249E+00  0.4457E+00
 -20.215  0.3253E+00  0.4490E+00
 -20.205  0.3256E+00  0.4522E+00
 -20.195  0.3260E+00  0.4555E+00
 -20.185  0.3264E+00  0.4587E+00
 -20.175  0.3267E+00  0.4620E+00
 -20.165  0.3250E+00  0.4653E+00
 -20.155  0.3247E+00  0.4685E+00
 -20.145  0.3244E+00  0.4717E+00
 -20.135  0.3241E+00  0.4750E+00
 -20.125  0.3242E+00  0.4782E+00
 -20.115  0.3242E+00  0.4815E+00
 -20.105  0.3242E+00  0.4847E+00
 -20.095  0.3243E+00  0.4880E+00
 -20.085  0.3243E+00  0.4912E+00
 -20.075  0.3245E+00  0.4944E+00
 -20.065  0.3248E+00  0.4977E+00
 -20.055  0.3250E+00  0.5009E+00
 -20.045  0.3253E+00  0.5042E+00
 -20.035  0.3255E+00  0.5074E+00
 -20.025  0.3258E+00  0.5107E+00
 -20.015  0.3260E+00  0.5140E+00
 -20.005  0.3264E+00  0.5172E+00
 -19.995  0.3267E+00  0.5205E+00
 -19.985  0.3271E+00  0.5238E+00
 -19.975  0.3274E+00  0.5270E+00
 -19.965  0.3277E+00  0.5303E+00
 -19.955  0.3264E+00  0.5336E+00
 -19.945  0.3258E+00  0.5368E+00
 -19.935  0.3256E+00  0.5401E+00
 -19.925  0.3255E+00  0.5433E+00
 -19.915  0.3254E+00  0.5466E+00
 -19.905  0.3254E+00  0.5499E+00
 -19.895  0.3255E+00  0.5531E+00
 -19.885  0.3256E+00  0.5564E+00
 -19.875  0.3257E+00  0.5596E+00
 -19.865  0.3258E+00  0.5629E+00
 -19.855  0.3260E+00  0.5661E+00
 -19.845  0.3261E+00  0.5694E+00
 -19.835  0.3263E+00  0.5727E+00
 -19.825  0.3265E+00  0.5759E+00
 -19.815  0.3268E+00  0.5792E+00
 -19.805  0.3270E+00  0.5825E+00
 -19.795  0.3273E+00  0.5857E+00
 -19.785  0.3276E+00  0.5890E+00
 -19.775  0.3278E+00  0.5923E+00
 -19.765  0.3281E+00  0.5956E+00
 -19.755  0.3284E+00  0.5988E+00
 -19.745  0.3288E+00  0.6021E+00
 -19.735  0.3282E+00  0.6054E+00
 -19.725  0.3274E+00  0.6087E+00
 -19.715  0.3272E+00  0.6120E+00
 -19.705  0.3269E+00  0.6152E+00
 -19.695  0.3269E+00  0.6185E+00
 -19.685  0.3269E+00  0.6218E+00
 -19.675  0.3269E+00  0.6250E+00
 -19.665  0.3269E+00  0.6283E+00
 -19.655  0.3270E+00  0.6316E+00
 -19.645  0.3271E+00  0.6349E+00
 -19.635  0.3273E+00  0.6381E+00
 -19.625  0.3275E+00  0.6414E+00
 -19.615  0.3276E+00  0.6447E+00
 -19.605  0.3278E+00  0.6480E+00
 -19.595  0.3280E+00  0.6512E+00
 -19.585  0.3282E+00  0.6545E+00
 -19.575  0.3284E+00  0.6578E+00
 -19.565  0.3286E+00  0.6611E+00
 -19.555  0.3289E+00  0.6644E+00
 -19.545  0.3291E+00  0.6677E+00
 -19.535  0.3294E+00  0.6710E+00
 -19.525  0.3297E+00  0.6742E+00
 -19.515  0.3299E+00  0.6775E+00
 -19.505  0.3302E+00  0.6808E+00
 -19.495  0.3294E+00  0.6841E+00
 -19.485  0.3289E+00  0.6874E+00
 -19.475  0.3287E+00  0.6907E+00
 -19.465  0.3287E+00  0.6940E+00
 -19.455  0.3286E+00  0.6973E+00
 -19.445  0.3285E+00  0.7006E+00
 -19.435  0.3286E+00  0.7039E+00
 -19.425  0.3287E+00  0.7072E+00
 -19.415  0.3287E+00  0.7104E+00
 -19.405  0.3288E+00  0.7137E+00
 -19.395  0.3289E+00  0.7170E+00
 -19.385  0.3290E+00  0.7203E+00
 -19.375  0.3292E+00  0.7236E+00
 -19.365  0.3294E+00  0.7269E+00
 -19.355  0.3296E+00  0.7302E+00
 -19.345  0.3298E+00  0.7335E+00
 -19.335  0.3300E+00  0.7368E+00
 -19.325  0.3302E+00  0.7401E+00
 -19.315  0.3304E+00  0.7434E+00
 -19.305  0.3306E+00  0.7467E+00
 -19.295  0.3309E+00  0.7500E+00
 -19.285  0.3311E+00  0.7533E+00
 -19.275  0.3313E+00  0.7566E+00
 -19.265  0.3316E+00  0.7599E+00
 -19.255  0.3318E+00  0.7633E+00
 -19.245  0.3312E+00  0.7666E+00
 -19.235  0.3308E+00  0.7699E+00
 -19.225  0.3306E+00  0.7732E+00
 -19.215  0.3305E+00  0.7765E+00
 -19.205  0.3305E+00  0.7798E+00
 -19.195  0.3305E+00  0.7831E+00
 -19.185  0.3306E+00  0.7864E+00
 -19.175  0.3306E+00  0.7897E+00
 -19.165  0.3307E+00  0.7930E+00
 -19.155  0.3308E+00  0.7963E+00
 -19.145  0.3309E+00  0.7996E+00
 -19.135  0.3310E+00  0.8029E+00
 -19.125  0.3312E+00  0.8063E+00
 -19.115  0.3313E+00  0.8096E+00
 -19.105  0.3314E+00  0.8129E+00
 -19.095  0.3316E+00  0.8162E+00
 -19.085  0.3318E+00  0.8195E+00
 -19.075  0.3320E+00  0.8228E+00
 -19.065  0.3322E+00  0.8262E+00
 -19.055  0.3325E+00  0.8295E+00
 -19.045  0.3327E+00  0.8328E+00
 -19.035  0.3329E+00  0.8361E+00
 -19.025  0.3331E+00  0.8395E+00
 -19.015  0.3333E+00  0.8428E+00
 -19.005  0.3335E+00  0.8461E+00
 -18.995  0.3338E+00  0.8495E+00
 -18.985  0.3334E+00  0.8528E+00
 -18.975  0.3331E+00  0.8561E+00
 -18.965  0.3328E+00  0.8595E+00
 -18.955  0.3328E+00  0.8628E+00
 -18.945  0.3328E+00  0.8661E+00
 -18.935  0.3328E+00  0.8695E+00
 -18.925  0.3328E+00  0.8728E+00
 -18.915  0.3329E+00  0.8761E+00
 -18.905  0.3330E+00  0.8794E+00
 -18.895  0.3331E+00  0.8828E+00
 -18.885  0.3332E+00  0.8861E+00
 -18.875  0.3333E+00  0.8894E+00
 -18.865  0.3334E+00  0.8928E+00
 -18.855  0.3336E+00  0.8961E+00
 -18.845  0.3338E+00  0.8994E+00
 -18.835  0.3339E+00  0.9028E+00
 -18.825  0.3341E+00  0.9061E+00
 -18.815  0.3342E+00  0.9095E+00
 -18.805  0.3344E+00  0.9128E+00
 -18.795  0.3346E+00  0.9161E+00
 -18.785  0.3348E+00  0.9195E+00
 -18.775  0.3350E+00  0.9228E+00
 -18.765  0.3352E+00  0.9262E+00
 -18.755  0.3355E+00  0.9295E+00
 -18.745  0.3357E+00  0.9329E+00
 -18.735  0.3359E+00  0.9363E+00
 -18.725  0.3361E+00  0.9396E+00
 -18.715  0.3364E+00  0.9430E+00
 -18.705  0.3359E+00  0.9463E+00
 -18.695  0.3356E+00  0.9497E+00
 -18.685  0.3355E+00  0.9531E+00
 -18.675  0.3355E+00  0.9564E+00
 -18.665  0.3355E+00  0.9598E+00
 -18.655  0.3356E+00  0.9631E+00
 -18.645  0.3356E+00  0.9665E+00
 -18.635  0.3357E+00  0.9698E+00
 -18.625  0.3358E+00  0.9732E+00
 -18.615  0.3359E+00  0.9766E+00
 -18.605  0.3361E+00  0.9799E+00
 -18.595  0.3362E+00  0.9833E+00
 -18.585  0.3364E+00  0.9866E+00
 -18.575  0.3365E+00  0.9900E+00
 -18.565  0.3367E+00  0.9934E+00
 -18.555  0.3368E+00  0.9967E+00
 -18.545  0.3370E+00  0.1000E+01
 -18.535  0.3372E+00  0.1003E+01
 -18.525  0.3374E+00  0.1007E+01
 -18.515  0.3376E+00  0.1010E+01
 -18.505  0.3378E+00  0.1014E+01
 -18.495  0.3380E+00  0.1017E+01
 -18.485  0.3382E+00  0.1020E+01
 -18.475  0.3384E+00  0.1024E+01
 -18.465  0.3386E+00  0.1027E+01
 -18.455  0.3388E+00  0.1031E+01
 -18.445  0.3391E+00  0.1034E+01
 -18.435  0.3393E+00  0.1037E+01
 -18.425  0.3396E+00  0.1041E+01
 -18.415  0.3391E+00  0.1044E+01
 -18.405  0.3389E+00  0.1047E+01
 -18.395  0.3389E+00  0.1051E+01
 -18.385  0.3389E+00  0.1054E+01
 -18.375  0.3390E+00  0.1058E+01
 -18.365  0.3390E+00  0.1061E+01
 -18.355  0.3392E+00  0.1064E+01
 -18.345  0.3393E+00  0.1068E+01
 -18.335  0.3394E+00  0.1071E+01
 -18.325  0.3395E+00  0.1075E+01
 -18.315  0.3397E+00  0.1078E+01
 -18.305  0.3398E+00  0.1081E+01
 -18.295  0.3400E+00  0.1085E+01
 -18.285  0.3402E+00  0.1088E+01
 -18.275  0.3404E+00  0.1092E+01
 -18.265  0.3406E+00  0.1095E+01
 -18.255  0.3407E+00  0.1098E+01
 -18.245  0.3409E+00  0.1102E+01
 -18.235  0.3411E+00  0.1105E+01
 -18.225  0.3414E+00  0.1109E+01
 -18.215  0.3416E+00  0.1112E+01
 -18.205  0.3418E+00  0.1115E+01
 -18.195  0.3420E+00  0.1119E+01
 -18.185  0.3423E+00  0.1122E+01
 -18.175  0.3425E+00  0.1126E+01
 -18.165  0.3427E+00  0.1129E+01
 -18.155  0.3429E+00  0.1133E+01
 -18.145  0.3432E+00  0.1136E+01
 -18.135  0.3434E+00  0.1139E+01
 -18.125  0.3436E+00  0.1143E+01
 -18.115  0.3432E+00  0.1146E+01
 -18.105  0.3433E+00  0.1150E+01
 -18.095  0.3433E+00  0.1153E+01
 -18.085  0.3434E+00  0.1157E+01
 -18.075  0.3435E+00  0.1160E+01
 -18.065  0.3437E+00  0.1163E+01
 -18.055  0.3438E+00  0.1167E+01
 -18.045  0.3439E+00  0.1170E+01
 -18.035  0.3441E+00  0.1174E+01
 -18.025  0.3443E+00  0.1177E+01
 -18.015  0.3445E+00  0.1181E+01
 -18.005  0.3447E+00  0.1184E+01
 -17.995  0.3449E+00  0.1188E+01
 -17.985  0.3451E+00  0.1191E+01
 -17.975  0.3453E+00  0.1194E+01
 -17.965  0.3455E+00  0.1198E+01
 -17.955  0.3458E+00  0.1201E+01
 -17.945  0.3460E+00  0.1205E+01
 -17.935  0.3463E+00  0.1208E+01
 -17.925  0.3465E+00  0.1212E+01
 -17.915  0.3467E+00  0.1215E+01
 -17.905  0.3470E+00  0.1219E+01
 -17.895  0.3473E+00  0.1222E+01
 -17.885  0.3475E+00  0.1226E+01
 -17.875  0.3478E+00  0.1229E+01
 -17.865  0.3481E+00  0.1233E+01
 -17.855  0.3484E+00  0.1236E+01
 -17.845  0.3487E+00  0.1240E+01
 -17.835  0.3490E+00  0.1243E+01
 -17.825  0.3492E+00  0.1247E+01
 -17.815  0.3495E+00  0.1250E+01
 -17.805  0.3493E+00  0.1254E+01
 -17.795  0.3493E+00  0.1257E+01
 -17.785  0.3495E+00  0.1261E+01
 -17.775  0.3497E+00  0.1264E+01
 -17.765  0.3498E+00  0.1268E+01
 -17.755  0.3501E+00  0.1271E+01
 -17.745  0.3503E+00  0.1275E+01
 -17.735  0.3506E+00  0.1278E+01
 -17.725  0.3508E+00  0.1282E+01
 -17.715  0.3511E+00  0.1285E+01
 -17.705  0.3513E+00  0.1289E+01
 -17.695  0.3516E+00  0.1292E+01
 -17.685  0.3519E+00  0.1296E+01
 -17.675  0.3522E+00  0.1299E+01
 -17.665  0.3525E+00  0.1303E+01
 -17.655  0.3528E+00  0.1306E+01
 -17.645  0.3531E+00  0.1310E+01
 -17.635  0.3534E+00  0.1313E+01
 -17.625  0.3538E+00  0.1317E+01
 -17.615  0.3541E+00  0.1320E+01
 -17.605  0.3544E+00  0.1324E+01
 -17.595  0.3548E+00  0.1327E+01
 -17.585  0.3552E+00  0.1331E+01
 -17.575  0.3555E+00  0.1335E+01
 -17.565  0.3559E+00  0.1338E+01
 -17.555  0.3562E+00  0.1342E+01
 -17.545  0.3566E+00  0.1345E+01
 -17.535  0.3571E+00  0.1349E+01
 -17.525  0.3575E+00  0.1352E+01
 -17.515  0.3579E+00  0.1356E+01
 -17.505  0.3583E+00  0.1359E+01
 -17.495  0.3586E+00  0.1363E+01
 -17.485  0.3587E+00  0.1367E+01
 -17.475  0.3590E+00  0.1370E+01
 -17.465  0.3593E+00  0.1374E+01
 -17.455  0.3596E+00  0.1377E+01
 -17.445  0.3600E+00  0.1381E+01
 -17.435  0.3603E+00  0.1385E+01
 -17.425  0.3607E+00  0.1388E+01
 -17.415  0.3612E+00  0.1392E+01
 -17.405  0.3616E+00  0.1395E+01
 -17.395  0.3621E+00  0.1399E+01
 -17.385  0.3626E+00  0.1403E+01
 -17.375  0.3631E+00  0.1406E+01
 -17.365  0.3636E+00  0.1410E+01
 -17.355  0.3641E+00  0.1414E+01
 -17.345  0.3646E+00  0.1417E+01
 -17.335  0.3651E+00  0.1421E+01
 -17.325  0.3656E+00  0.1425E+01
 -17.315  0.3662E+00  0.1428E+01
 -17.305  0.3668E+00  0.1432E+01
 -17.295  0.3673E+00  0.1436E+01
 -17.285  0.3679E+00  0.1439E+01
 -17.275  0.3685E+00  0.1443E+01
 -17.265  0.3691E+00  0.1447E+01
 -17.255  0.3697E+00  0.1450E+01
 -17.245  0.3704E+00  0.1454E+01
 -17.235  0.3711E+00  0.1458E+01
 -17.225  0.3717E+00  0.1461E+01
 -17.215  0.3724E+00  0.1465E+01
 -17.205  0.3731E+00  0.1469E+01
 -17.195  0.3738E+00  0.1473E+01
 -17.185  0.3747E+00  0.1476E+01
 -17.175  0.3755E+00  0.1480E+01
 -17.165  0.3762E+00  0.1484E+01
 -17.155  0.3770E+00  0.1488E+01
 -17.145  0.3778E+00  0.1491E+01
 -17.135  0.3786E+00  0.1495E+01
 -17.125  0.3794E+00  0.1499E+01
 -17.115  0.3802E+00  0.1503E+01
 -17.105  0.3811E+00  0.1507E+01
 -17.095  0.3819E+00  0.1510E+01
 -17.085  0.3828E+00  0.1514E+01
 -17.075  0.3839E+00  0.1518E+01
 -17.065  0.3850E+00  0.1522E+01
 -17.055  0.3862E+00  0.1526E+01
 -17.045  0.3875E+00  0.1530E+01
 -17.035  0.3889E+00  0.1533E+01
 -17.025  0.3902E+00  0.1537E+01
 -17.015  0.3916E+00  0.1541E+01
 -17.005  0.3929E+00  0.1545E+01
 -16.995  0.3943E+00  0.1549E+01
 -16.985  0.3957E+00  0.1553E+01
 -16.975  0.3972E+00  0.1557E+01
 -16.965  0.3989E+00  0.1561E+01
 -16.955  0.4005E+00  0.1565E+01
 -16.945  0.4022E+00  0.1569E+01
 -16.935  0.4039E+00  0.1573E+01
 -16.925  0.4056E+00  0.1577E+01
 -16.915  0.4074E+00  0.1581E+01
 -16.905  0.4100E+00  0.1585E+01
 -16.895  0.4125E+00  0.1589E+01
 -16.885  0.4150E+00  0.1594E+01
 -16.875  0.4176E+00  0.1598E+01
 -16.865  0.4201E+00  0.1602E+01
 -16.855  0.4233E+00  0.1606E+01
 -16.845  0.4267E+00  0.1610E+01
 -16.835  0.4304E+00  0.1615E+01
 -16.825  0.4341E+00  0.1619E+01
 -16.815  0.4378E+00  0.1623E+01
 -16.805  0.4415E+00  0.1628E+01
 -16.795  0.4453E+00  0.1632E+01
 -16.785  0.4490E+00  0.1637E+01
 -16.775  0.4544E+00  0.1641E+01
 -16.765  0.4605E+00  0.1646E+01
 -16.755  0.4674E+00  0.1650E+01
 -16.745  0.4795E+00  0.1655E+01
 -16.735  0.4916E+00  0.1660E+01
 -16.725  0.5037E+00  0.1665E+01
 -16.715  0.5159E+00  0.1670E+01
 -16.705  0.5282E+00  0.1675E+01
 -16.695  0.5404E+00  0.1681E+01
 -16.685  0.5527E+00  0.1686E+01
 -16.675  0.5667E+00  0.1692E+01
 -16.665  0.7330E+00  0.1699E+01
 -16.655  0.6387E+00  0.1706E+01
 -16.645  0.5445E+00  0.1712E+01
 -16.635  0.5150E+00  0.1717E+01
 -16.625  0.4979E+00  0.1722E+01
 -16.615  0.4561E+00  0.1730E+01
 -16.605  0.4432E+00  0.1734E+01
 -16.595  0.4311E+00  0.1739E+01
 -16.585  0.4195E+00  0.1743E+01
 -16.575  0.4079E+00  0.1747E+01
 -16.565  0.3963E+00  0.1751E+01
 -16.555  0.3847E+00  0.1755E+01
 -16.545  0.3761E+00  0.1759E+01
 -16.535  0.4256E+00  0.1763E+01
 -16.525  0.5269E+00  0.1768E+01
 -16.515  0.3779E+00  0.1772E+01
 -16.505  0.3692E+00  0.1776E+01
 -16.495  0.3608E+00  0.1780E+01
 -16.485  0.3524E+00  0.1783E+01
 -16.475  0.3441E+00  0.1787E+01
 -16.465  0.3358E+00  0.1790E+01
 -16.455  0.3275E+00  0.1794E+01
 -16.445  0.3194E+00  0.1797E+01
 -16.435  0.3112E+00  0.1800E+01
 -16.425  0.3033E+00  0.1803E+01
 -16.415  0.2957E+00  0.1806E+01
 -16.405  0.2989E+00  0.1809E+01
 -16.395  0.3104E+00  0.1812E+01
 -16.385  0.3241E+00  0.1815E+01
 -16.375  0.3380E+00  0.1818E+01
 -16.365  0.3707E+00  0.1822E+01
 -16.355  0.3070E+00  0.1825E+01
 -16.345  0.3009E+00  0.1828E+01
 -16.335  0.2948E+00  0.1831E+01
 -16.325  0.2887E+00  0.1834E+01
 -16.315  0.2826E+00  0.1837E+01
 -16.305  0.2765E+00  0.1840E+01
 -16.295  0.2704E+00  0.1842E+01
 -16.285  0.2643E+00  0.1845E+01
 -16.275  0.2582E+00  0.1848E+01
 -16.265  0.2521E+00  0.1850E+01
 -16.255  0.2460E+00  0.1853E+01
 -16.245  0.2399E+00  0.1855E+01
 -16.235  0.2339E+00  0.1858E+01
 -16.225  0.2316E+00  0.1860E+01
 -16.215  0.2335E+00  0.1862E+01
 -16.205  0.2354E+00  0.1865E+01
 -16.195  0.2373E+00  0.1867E+01
 -16.185  0.2392E+00  0.1869E+01
 -16.175  0.2411E+00  0.1872E+01
 -16.165  0.2430E+00  0.1874E+01
 -16.155  0.2085E+00  0.1876E+01
 -16.145  0.2188E+00  0.1879E+01
 -16.135  0.2366E+00  0.1881E+01
 -16.125  0.2336E+00  0.1883E+01
 -16.115  0.2290E+00  0.1886E+01
 -16.105  0.2245E+00  0.1888E+01
 -16.095  0.2200E+00  0.1890E+01
 -16.085  0.2155E+00  0.1892E+01
 -16.075  0.2110E+00  0.1894E+01
 -16.065  0.2064E+00  0.1896E+01
 -16.055  0.2019E+00  0.1898E+01
 -16.045  0.1974E+00  0.1900E+01
 -16.035  0.1929E+00  0.1902E+01
 -16.025  0.1883E+00  0.1904E+01
 -16.015  0.1838E+00  0.1906E+01
 -16.005  0.1793E+00  0.1908E+01
 -15.995  0.1760E+00  0.1910E+01
 -15.985  0.1759E+00  0.1912E+01
 -15.975  0.1759E+00  0.1913E+01
 -15.965  0.1758E+00  0.1915E+01
 -15.955  0.1758E+00  0.1917E+01
 -15.945  0.1757E+00  0.1919E+01
 -15.935  0.1757E+00  0.1920E+01
 -15.925  0.1757E+00  0.1922E+01
 -15.915  0.1756E+00  0.1924E+01
 -15.905  0.1756E+00  0.1926E+01
 -15.895  0.1511E+00  0.1927E+01
 -15.885  0.1532E+00  0.1929E+01
 -15.875  0.1552E+00  0.1930E+01
 -15.865  0.1573E+00  0.1932E+01
 -15.855  0.1593E+00  0.1933E+01
 -15.845  0.1601E+00  0.1935E+01
 -15.835  0.1612E+00  0.1937E+01
 -15.825  0.1594E+00  0.1938E+01
 -15.815  0.1560E+00  0.1940E+01
 -15.805  0.1525E+00  0.1941E+01
 -15.795  0.1491E+00  0.1943E+01
 -15.785  0.1456E+00  0.1944E+01
 -15.775  0.1422E+00  0.1946E+01
 -15.765  0.1387E+00  0.1947E+01
 -15.755  0.1353E+00  0.1949E+01
 -15.745  0.1318E+00  0.1950E+01
 -15.735  0.1284E+00  0.1951E+01
 -15.725  0.1249E+00  0.1952E+01
 -15.715  0.1215E+00  0.1954E+01
 -15.705  0.1208E+00  0.1955E+01
 -15.695  0.1203E+00  0.1956E+01
 -15.685  0.1197E+00  0.1957E+01
 -15.675  0.1192E+00  0.1958E+01
 -15.665  0.1187E+00  0.1960E+01
 -15.655  0.1182E+00  0.1961E+01
 -15.645  0.1177E+00  0.1962E+01
 -15.635  0.1172E+00  0.1963E+01
 -15.625  0.1166E+00  0.1964E+01
 -15.615  0.1161E+00  0.1966E+01
 -15.605  0.1156E+00  0.1967E+01
 -15.595  0.1151E+00  0.1968E+01
 -15.585  0.9665E-01  0.1969E+01
 -15.575  0.9735E-01  0.1970E+01
 -15.565  0.9805E-01  0.1971E+01
 -15.555  0.9875E-01  0.1972E+01
 -15.545  0.9945E-01  0.1973E+01
 -15.535  0.1002E+00  0.1974E+01
 -15.525  0.9984E-01  0.1975E+01
 -15.515  0.9885E-01  0.1976E+01
 -15.505  0.9630E-01  0.1977E+01
 -15.495  0.9374E-01  0.1978E+01
 -15.485  0.9118E-01  0.1979E+01
 -15.475  0.8863E-01  0.1979E+01
 -15.465  0.8607E-01  0.1980E+01
 -15.455  0.8351E-01  0.1981E+01
 -15.445  0.8096E-01  0.1982E+01
 -15.435  0.9351E-01  0.1983E+01
 -15.425  0.1284E+00  0.1984E+01
 -15.415  0.1646E+00  0.1985E+01
 -15.405  0.3425E+00  0.1988E+01
 -15.395  0.5203E+00  0.1992E+01
 -15.385  0.2582E+00  0.1996E+01
 -15.375  0.2716E+00  0.1998E+01
 -15.365  0.2861E+00  0.2001E+01
 -15.355  0.3006E+00  0.2004E+01
 -15.345  0.3151E+00  0.2007E+01
 -15.335  0.3139E+00  0.2013E+01
 -15.325  0.3163E+00  0.2016E+01
 -15.315  0.3187E+00  0.2019E+01
 -15.305  0.3212E+00  0.2023E+01
 -15.295  0.3236E+00  0.2026E+01
 -15.285  0.3261E+00  0.2029E+01
 -15.275  0.3308E+00  0.2032E+01
 -15.265  0.3355E+00  0.2036E+01
 -15.255  0.3435E+00  0.2039E+01
 -15.245  0.4587E+00  0.2043E+01
 -15.235  0.3639E+00  0.2048E+01
 -15.225  0.3157E+00  0.2051E+01
 -15.215  0.3142E+00  0.2054E+01
 -15.205  0.3126E+00  0.2057E+01
 -15.195  0.3111E+00  0.2060E+01
 -15.185  0.3137E+00  0.2063E+01
 -15.175  0.3180E+00  0.2066E+01
 -15.165  0.3223E+00  0.2070E+01
 -15.155  0.3266E+00  0.2073E+01
 -15.145  0.3309E+00  0.2076E+01
 -15.135  0.3352E+00  0.2080E+01
 -15.125  0.3395E+00  0.2083E+01
 -15.115  0.4226E+00  0.2087E+01
 -15.105  0.3906E+00  0.2091E+01
 -15.095  0.3586E+00  0.2094E+01
 -15.085  0.3266E+00  0.2098E+01
 -15.075  0.3113E+00  0.2101E+01
 -15.065  0.3146E+00  0.2104E+01
 -15.055  0.3180E+00  0.2107E+01
 -15.045  0.3214E+00  0.2110E+01
 -15.035  0.3247E+00  0.2114E+01
 -15.025  0.3281E+00  0.2117E+01
 -15.015  0.3315E+00  0.2120E+01
 -15.005  0.3348E+00  0.2124E+01
 -14.995  0.3385E+00  0.2127E+01
 -14.985  0.3457E+00  0.2130E+01
 -14.975  0.3537E+00  0.2134E+01
 -14.965  0.3618E+00  0.2137E+01
 -14.955  0.4403E+00  0.2141E+01
 -14.945  0.4157E+00  0.2145E+01
 -14.935  0.3912E+00  0.2149E+01
 -14.925  0.3741E+00  0.2153E+01
 -14.915  0.3618E+00  0.2157E+01
 -14.905  0.3621E+00  0.2161E+01
 -14.895  0.3696E+00  0.2164E+01
 -14.885  0.3771E+00  0.2168E+01
 -14.875  0.3845E+00  0.2172E+01
 -14.865  0.3920E+00  0.2176E+01
 -14.855  0.3995E+00  0.2180E+01
 -14.845  0.4080E+00  0.2184E+01
 -14.835  0.4167E+00  0.2188E+01
 -14.825  0.4254E+00  0.2192E+01
 -14.815  0.4342E+00  0.2196E+01
 -14.805  0.4429E+00  0.2201E+01
 -14.795  0.4516E+00  0.2205E+01
 -14.785  0.5708E+00  0.2211E+01
 -14.775  0.6173E+00  0.2216E+01
 -14.765  0.5334E+00  0.2222E+01
 -14.755  0.5244E+00  0.2228E+01
 -14.745  0.5155E+00  0.2233E+01
 -14.735  0.5501E+00  0.2238E+01
 -14.725  0.5929E+00  0.2244E+01
 -14.715  0.6357E+00  0.2250E+01
 -14.705  0.6785E+00  0.2256E+01
 -14.695  0.7216E+00  0.2263E+01
 -14.685  0.5754E+00  0.2270E+01
 -14.675  0.5619E+00  0.2276E+01
 -14.665  0.5484E+00  0.2281E+01
 -14.655  0.5349E+00  0.2287E+01
 -14.645  0.5215E+00  0.2292E+01
 -14.635  0.5080E+00  0.2297E+01
 -14.625  0.4945E+00  0.2302E+01
 -14.615  0.4843E+00  0.2307E+01
 -14.605  0.4755E+00  0.2312E+01
 -14.595  0.4683E+00  0.2317E+01
 -14.585  0.4624E+00  0.2321E+01
 -14.575  0.4565E+00  0.2326E+01
 -14.565  0.4506E+00  0.2330E+01
 -14.555  0.4462E+00  0.2335E+01
 -14.545  0.4426E+00  0.2339E+01
 -14.535  0.4394E+00  0.2344E+01
 -14.525  0.4366E+00  0.2348E+01
 -14.515  0.4338E+00  0.2352E+01
 -14.505  0.4310E+00  0.2357E+01
 -14.495  0.4282E+00  0.2361E+01
 -14.485  0.4255E+00  0.2365E+01
 -14.475  0.4227E+00  0.2370E+01
 -14.465  0.4201E+00  0.2374E+01
 -14.455  0.4174E+00  0.2378E+01
 -14.445  0.4149E+00  0.2382E+01
 -14.435  0.4127E+00  0.2386E+01
 -14.425  0.4105E+00  0.2390E+01
 -14.415  0.4083E+00  0.2394E+01
 -14.405  0.4062E+00  0.2399E+01
 -14.395  0.4040E+00  0.2403E+01
 -14.385  0.4019E+00  0.2407E+01
 -14.375  0.3997E+00  0.2411E+01
 -14.365  0.3976E+00  0.2415E+01
 -14.355  0.3954E+00  0.2419E+01
 -14.345  0.3933E+00  0.2423E+01
 -14.335  0.3878E+00  0.2426E+01
 -14.325  0.3865E+00  0.2430E+01
 -14.315  0.3853E+00  0.2434E+01
 -14.305  0.3841E+00  0.2438E+01
 -14.295  0.3829E+00  0.2442E+01
 -14.285  0.3817E+00  0.2446E+01
 -14.275  0.3805E+00  0.2449E+01
 -14.265  0.3793E+00  0.2453E+01
 -14.255  0.3782E+00  0.2457E+01
 -14.245  0.3770E+00  0.2461E+01
 -14.235  0.3758E+00  0.2465E+01
 -14.225  0.3747E+00  0.2468E+01
 -14.215  0.3735E+00  0.2472E+01
 -14.205  0.3723E+00  0.2476E+01
 -14.195  0.3712E+00  0.2480E+01
 -14.185  0.3701E+00  0.2483E+01
 -14.175  0.3689E+00  0.2487E+01
 -14.165  0.3678E+00  0.2491E+01
 -14.155  0.3666E+00  0.2494E+01
 -14.145  0.3654E+00  0.2498E+01
 -14.135  0.3636E+00  0.2502E+01
 -14.125  0.3618E+00  0.2505E+01
 -14.115  0.3599E+00  0.2509E+01
 -14.105  0.3581E+00  0.2512E+01
 -14.095  0.3563E+00  0.2516E+01
 -14.085  0.3545E+00  0.2520E+01
 -14.075  0.3530E+00  0.2523E+01
 -14.065  0.3523E+00  0.2527E+01
 -14.055  0.3516E+00  0.2530E+01
 -14.045  0.3509E+00  0.2534E+01
 -14.035  0.3502E+00  0.2537E+01
 -14.025  0.3495E+00  0.2541E+01
 -14.015  0.3488E+00  0.2544E+01
 -14.005  0.3481E+00  0.2548E+01
 -13.995  0.3474E+00  0.2551E+01
 -13.985  0.3467E+00  0.2555E+01
 -13.975  0.3460E+00  0.2558E+01
 -13.965  0.3451E+00  0.2561E+01
 -13.955  0.3442E+00  0.2565E+01
 -13.945  0.3433E+00  0.2568E+01
 -13.935  0.3423E+00  0.2572E+01
 -13.925  0.3414E+00  0.2575E+01
 -13.915  0.3405E+00  0.2579E+01
 -13.905  0.3395E+00  0.2582E+01
 -13.895  0.3386E+00  0.2585E+01
 -13.885  0.3376E+00  0.2589E+01
 -13.875  0.3367E+00  0.2592E+01
 -13.865  0.3357E+00  0.2596E+01
 -13.855  0.3348E+00  0.2599E+01
 -13.845  0.3338E+00  0.2602E+01
 -13.835  0.3294E+00  0.2606E+01
 -13.825  0.3289E+00  0.2609E+01
 -13.815  0.3285E+00  0.2612E+01
 -13.805  0.3280E+00  0.2615E+01
 -13.795  0.3274E+00  0.2619E+01
 -13.785  0.3268E+00  0.2622E+01
 -13.775  0.3262E+00  0.2625E+01
 -13.765  0.3256E+00  0.2628E+01
 -13.755  0.3250E+00  0.2632E+01
 -13.745  0.3244E+00  0.2635E+01
 -13.735  0.3238E+00  0.2638E+01
 -13.725  0.3233E+00  0.2641E+01
 -13.715  0.3227E+00  0.2645E+01
 -13.705  0.3221E+00  0.2648E+01
 -13.695  0.3215E+00  0.2651E+01
 -13.685  0.3209E+00  0.2654E+01
 -13.675  0.3203E+00  0.2658E+01
 -13.665  0.3197E+00  0.2661E+01
 -13.655  0.3192E+00  0.2664E+01
 -13.645  0.3186E+00  0.2667E+01
 -13.635  0.3179E+00  0.2670E+01
 -13.625  0.3172E+00  0.2673E+01
 -13.615  0.3162E+00  0.2677E+01
 -13.605  0.3149E+00  0.2680E+01
 -13.595  0.3136E+00  0.2683E+01
 -13.585  0.3124E+00  0.2686E+01
 -13.575  0.3111E+00  0.2689E+01
 -13.565  0.3098E+00  0.2692E+01
 -13.555  0.3085E+00  0.2695E+01
 -13.545  0.3075E+00  0.2698E+01
 -13.535  0.3071E+00  0.2702E+01
 -13.525  0.3067E+00  0.2705E+01
 -13.515  0.3063E+00  0.2708E+01
 -13.505  0.3059E+00  0.2711E+01
 -13.495  0.3055E+00  0.2714E+01
 -13.485  0.3051E+00  0.2717E+01
 -13.475  0.3046E+00  0.2720E+01
 -13.465  0.3042E+00  0.2723E+01
 -13.455  0.3038E+00  0.2726E+01
 -13.445  0.3033E+00  0.2729E+01
 -13.435  0.3029E+00  0.2732E+01
 -13.425  0.3025E+00  0.2735E+01
 -13.415  0.3019E+00  0.2738E+01
 -13.405  0.3012E+00  0.2741E+01
 -13.395  0.3005E+00  0.2744E+01
 -13.385  0.2998E+00  0.2747E+01
 -13.375  0.2992E+00  0.2750E+01
 -13.365  0.2985E+00  0.2753E+01
 -13.355  0.2978E+00  0.2756E+01
 -13.345  0.2972E+00  0.2759E+01
 -13.335  0.2965E+00  0.2762E+01
 -13.325  0.2958E+00  0.2765E+01
 -13.315  0.2951E+00  0.2768E+01
 -13.305  0.2945E+00  0.2771E+01
 -13.295  0.2938E+00  0.2774E+01
 -13.285  0.2931E+00  0.2777E+01
 -13.275  0.2896E+00  0.2780E+01
 -13.265  0.2893E+00  0.2783E+01
 -13.255  0.2890E+00  0.2785E+01
 -13.245  0.2887E+00  0.2788E+01
 -13.235  0.2884E+00  0.2791E+01
 -13.225  0.2880E+00  0.2794E+01
 -13.215  0.2876E+00  0.2797E+01
 -13.205  0.2871E+00  0.2800E+01
 -13.195  0.2867E+00  0.2803E+01
 -13.185  0.2863E+00  0.2806E+01
 -13.175  0.2858E+00  0.2808E+01
 -13.165  0.2854E+00  0.2811E+01
 -13.155  0.2850E+00  0.2814E+01
 -13.145  0.2845E+00  0.2817E+01
 -13.135  0.2841E+00  0.2820E+01
 -13.125  0.2837E+00  0.2823E+01
 -13.115  0.2832E+00  0.2826E+01
 -13.105  0.2828E+00  0.2828E+01
 -13.095  0.2823E+00  0.2831E+01
 -13.085  0.2819E+00  0.2834E+01
 -13.075  0.2814E+00  0.2837E+01
 -13.065  0.2810E+00  0.2840E+01
 -13.055  0.2805E+00  0.2842E+01
 -13.045  0.2801E+00  0.2845E+01
 -13.035  0.2791E+00  0.2848E+01
 -13.025  0.2780E+00  0.2851E+01
 -13.015  0.2770E+00  0.2854E+01
 -13.005  0.2759E+00  0.2856E+01
 -12.995  0.2749E+00  0.2859E+01
 -12.985  0.2738E+00  0.2862E+01
 -12.975  0.2728E+00  0.2865E+01
 -12.965  0.2722E+00  0.2867E+01
 -12.955  0.2719E+00  0.2870E+01
 -12.945  0.2716E+00  0.2873E+01
 -12.935  0.2713E+00  0.2875E+01
 -12.925  0.2710E+00  0.2878E+01
 -12.915  0.2706E+00  0.2881E+01
 -12.905  0.2703E+00  0.2884E+01
 -12.895  0.2700E+00  0.2886E+01
 -12.885  0.2697E+00  0.2889E+01
 -12.875  0.2694E+00  0.2892E+01
 -12.865  0.2690E+00  0.2894E+01
 -12.855  0.2687E+00  0.2897E+01
 -12.845  0.2684E+00  0.2900E+01
 -12.835  0.2680E+00  0.2902E+01
 -12.825  0.2677E+00  0.2905E+01
 -12.815  0.2672E+00  0.2908E+01
 -12.805  0.2667E+00  0.2910E+01
 -12.795  0.2661E+00  0.2913E+01
 -12.785  0.2656E+00  0.2916E+01
 -12.775  0.2650E+00  0.2918E+01
 -12.765  0.2644E+00  0.2921E+01
 -12.755  0.2639E+00  0.2924E+01
 -12.745  0.2633E+00  0.2926E+01
 -12.735  0.2628E+00  0.2929E+01
 -12.725  0.2622E+00  0.2932E+01
 -12.715  0.2617E+00  0.2934E+01
 -12.705  0.2611E+00  0.2937E+01
 -12.695  0.2859E+00  0.2940E+01
 -12.685  0.3135E+00  0.2943E+01
 -12.675  0.3440E+00  0.2946E+01
 -12.665  0.3746E+00  0.2949E+01
 -12.655  0.4051E+00  0.2953E+01
 -12.645  0.3532E+00  0.2958E+01
 -12.635  0.3553E+00  0.2961E+01
 -12.625  0.3574E+00  0.2965E+01
 -12.615  0.3595E+00  0.2968E+01
 -12.605  0.3616E+00  0.2972E+01
 -12.595  0.3636E+00  0.2975E+01
 -12.585  0.3656E+00  0.2979E+01
 -12.575  0.3676E+00  0.2983E+01
 -12.565  0.3696E+00  0.2986E+01
 -12.555  0.3717E+00  0.2990E+01
 -12.545  0.3742E+00  0.2994E+01
 -12.535  0.3767E+00  0.2998E+01
 -12.525  0.3793E+00  0.3001E+01
 -12.515  0.3818E+00  0.3005E+01
 -12.505  0.3793E+00  0.3009E+01
 -12.495  0.3755E+00  0.3013E+01
 -12.485  0.3716E+00  0.3017E+01
 -12.475  0.3695E+00  0.3020E+01
 -12.465  0.3699E+00  0.3024E+01
 -12.455  0.3703E+00  0.3028E+01
 -12.445  0.3707E+00  0.3031E+01
 -12.435  0.3710E+00  0.3035E+01
 -12.425  0.3714E+00  0.3039E+01
 -12.415  0.3714E+00  0.3043E+01
 -12.405  0.3713E+00  0.3046E+01
 -12.395  0.3712E+00  0.3050E+01
 -12.385  0.3710E+00  0.3054E+01
 -12.375  0.3720E+00  0.3057E+01
 -12.365  0.3725E+00  0.3061E+01
 -12.355  0.3730E+00  0.3065E+01
 -12.345  0.3740E+00  0.3069E+01
 -12.335  0.3752E+00  0.3072E+01
 -12.325  0.3763E+00  0.3076E+01
 -12.315  0.3775E+00  0.3080E+01
 -12.305  0.3787E+00  0.3084E+01
 -12.295  0.3798E+00  0.3087E+01
 -12.285  0.3810E+00  0.3091E+01
 -12.275  0.3780E+00  0.3095E+01
 -12.265  0.3774E+00  0.3099E+01
 -12.255  0.3769E+00  0.3103E+01
 -12.245  0.3764E+00  0.3106E+01
 -12.235  0.3758E+00  0.3110E+01
 -12.225  0.3754E+00  0.3114E+01
 -12.215  0.3755E+00  0.3118E+01
 -12.205  0.3756E+00  0.3121E+01
 -12.195  0.3763E+00  0.3125E+01
 -12.185  0.3769E+00  0.3129E+01
 -12.175  0.3776E+00  0.3133E+01
 -12.165  0.3780E+00  0.3136E+01
 -12.155  0.3785E+00  0.3140E+01
 -12.145  0.3789E+00  0.3144E+01
 -12.135  0.3794E+00  0.3148E+01
 -12.125  0.3798E+00  0.3152E+01
 -12.115  0.3801E+00  0.3155E+01
 -12.105  0.3804E+00  0.3159E+01
 -12.095  0.3808E+00  0.3163E+01
 -12.085  0.3811E+00  0.3167E+01
 -12.075  0.3814E+00  0.3171E+01
 -12.065  0.3818E+00  0.3174E+01
 -12.055  0.3821E+00  0.3178E+01
 -12.045  0.3824E+00  0.3182E+01
 -12.035  0.3808E+00  0.3186E+01
 -12.025  0.3814E+00  0.3190E+01
 -12.015  0.3820E+00  0.3194E+01
 -12.005  0.3826E+00  0.3197E+01
 -11.995  0.3832E+00  0.3201E+01
 -11.985  0.3829E+00  0.3205E+01
 -11.975  0.3817E+00  0.3209E+01
 -11.965  0.3835E+00  0.3213E+01
 -11.955  0.3837E+00  0.3216E+01
 -11.945  0.3840E+00  0.3220E+01
 -11.935  0.3842E+00  0.3224E+01
 -11.925  0.3844E+00  0.3228E+01
 -11.915  0.3845E+00  0.3232E+01
 -11.905  0.3848E+00  0.3236E+01
 -11.895  0.3850E+00  0.3240E+01
 -11.885  0.3853E+00  0.3243E+01
 -11.875  0.3856E+00  0.3247E+01
 -11.865  0.3859E+00  0.3251E+01
 -11.855  0.3862E+00  0.3255E+01
 -11.845  0.3864E+00  0.3259E+01
 -11.835  0.3867E+00  0.3263E+01
 -11.825  0.3870E+00  0.3267E+01
 -11.815  0.3873E+00  0.3270E+01
 -11.805  0.3875E+00  0.3274E+01
 -11.795  0.3877E+00  0.3278E+01
 -11.785  0.3879E+00  0.3282E+01
 -11.775  0.3882E+00  0.3286E+01
 -11.765  0.3884E+00  0.3290E+01
 -11.755  0.3885E+00  0.3294E+01
 -11.745  0.3886E+00  0.3298E+01
 -11.735  0.3889E+00  0.3301E+01
 -11.725  0.3893E+00  0.3305E+01
 -11.715  0.3896E+00  0.3309E+01
 -11.705  0.3900E+00  0.3313E+01
 -11.695  0.3903E+00  0.3317E+01
 -11.685  0.3909E+00  0.3321E+01
 -11.675  0.3917E+00  0.3325E+01
 -11.665  0.3924E+00  0.3329E+01
 -11.655  0.3929E+00  0.3333E+01
 -11.645  0.3924E+00  0.3337E+01
 -11.635  0.3925E+00  0.3341E+01
 -11.625  0.3926E+00  0.3344E+01
 -11.615  0.3928E+00  0.3348E+01
 -11.605  0.3930E+00  0.3352E+01
 -11.595  0.3933E+00  0.3356E+01
 -11.585  0.3935E+00  0.3360E+01
 -11.575  0.3938E+00  0.3364E+01
 -11.565  0.3940E+00  0.3368E+01
 -11.555  0.3942E+00  0.3372E+01
 -11.545  0.3945E+00  0.3376E+01
 -11.535  0.3948E+00  0.3380E+01
 -11.525  0.3950E+00  0.3384E+01
 -11.515  0.3953E+00  0.3388E+01
 -11.505  0.3955E+00  0.3392E+01
 -11.495  0.3958E+00  0.3396E+01
 -11.485  0.3960E+00  0.3400E+01
 -11.475  0.3982E+00  0.3404E+01
 -11.465  0.3985E+00  0.3408E+01
 -11.455  0.3988E+00  0.3412E+01
 -11.445  0.3991E+00  0.3416E+01
 -11.435  0.3994E+00  0.3420E+01
 -11.425  0.3996E+00  0.3424E+01
 -11.415  0.3999E+00  0.3428E+01
 -11.405  0.4002E+00  0.3432E+01
 -11.395  0.4005E+00  0.3436E+01
 -11.385  0.4007E+00  0.3440E+01
 -11.375  0.4010E+00  0.3444E+01
 -11.365  0.4013E+00  0.3448E+01
 -11.355  0.3999E+00  0.3452E+01
 -11.345  0.4004E+00  0.3456E+01
 -11.335  0.4010E+00  0.3460E+01
 -11.325  0.4014E+00  0.3464E+01
 -11.315  0.4018E+00  0.3468E+01
 -11.305  0.4022E+00  0.3472E+01
 -11.295  0.4025E+00  0.3476E+01
 -11.285  0.4028E+00  0.3480E+01
 -11.275  0.4031E+00  0.3484E+01
 -11.265  0.4035E+00  0.3488E+01
 -11.255  0.4038E+00  0.3492E+01
 -11.245  0.4041E+00  0.3496E+01
 -11.235  0.4044E+00  0.3500E+01
 -11.225  0.4049E+00  0.3504E+01
 -11.215  0.4056E+00  0.3508E+01
 -11.205  0.4063E+00  0.3512E+01
 -11.195  0.4071E+00  0.3516E+01
 -11.185  0.4078E+00  0.3520E+01
 -11.175  0.4085E+00  0.3524E+01
 -11.165  0.4091E+00  0.3528E+01
 -11.155  0.4098E+00  0.3532E+01
 -11.145  0.4102E+00  0.3537E+01
 -11.135  0.4105E+00  0.3541E+01
 -11.125  0.4109E+00  0.3545E+01
 -11.115  0.4112E+00  0.3549E+01
 -11.105  0.4116E+00  0.3553E+01
 -11.095  0.4119E+00  0.3557E+01
 -11.085  0.4122E+00  0.3561E+01
 -11.075  0.4125E+00  0.3565E+01
 -11.065  0.4128E+00  0.3570E+01
 -11.055  0.4130E+00  0.3574E+01
 -11.045  0.4129E+00  0.3578E+01
 -11.035  0.4129E+00  0.3582E+01
 -11.025  0.4128E+00  0.3586E+01
 -11.015  0.4127E+00  0.3590E+01
 -11.005  0.4127E+00  0.3594E+01
 -10.995  0.4126E+00  0.3598E+01
 -10.985  0.4129E+00  0.3603E+01
 -10.975  0.4134E+00  0.3607E+01
 -10.965  0.4138E+00  0.3611E+01
 -10.955  0.4141E+00  0.3615E+01
 -10.945  0.4144E+00  0.3619E+01
 -10.935  0.4151E+00  0.3623E+01
 -10.925  0.4177E+00  0.3627E+01
 -10.915  0.4184E+00  0.3632E+01
 -10.905  0.4191E+00  0.3636E+01
 -10.895  0.4197E+00  0.3640E+01
 -10.885  0.4203E+00  0.3644E+01
 -10.875  0.4210E+00  0.3648E+01
 -10.865  0.4216E+00  0.3653E+01
 -10.855  0.4222E+00  0.3657E+01
 -10.845  0.4227E+00  0.3661E+01
 -10.835  0.4233E+00  0.3665E+01
 -10.825  0.4239E+00  0.3669E+01
 -10.815  0.4244E+00  0.3674E+01
 -10.805  0.4250E+00  0.3678E+01
 -10.795  0.4256E+00  0.3682E+01
 -10.785  0.4260E+00  0.3686E+01
 -10.775  0.4264E+00  0.3691E+01
 -10.765  0.4267E+00  0.3695E+01
 -10.755  0.4270E+00  0.3699E+01
 -10.745  0.4272E+00  0.3704E+01
 -10.735  0.4275E+00  0.3708E+01
 -10.725  0.4277E+00  0.3712E+01
 -10.715  0.4280E+00  0.3716E+01
 -10.705  0.4282E+00  0.3721E+01
 -10.695  0.4284E+00  0.3725E+01
 -10.685  0.4286E+00  0.3729E+01
 -10.675  0.4288E+00  0.3734E+01
 -10.665  0.4290E+00  0.3738E+01
 -10.655  0.4294E+00  0.3742E+01
 -10.645  0.4286E+00  0.3746E+01
 -10.635  0.4295E+00  0.3751E+01
 -10.625  0.4304E+00  0.3755E+01
 -10.615  0.4312E+00  0.3759E+01
 -10.605  0.4321E+00  0.3764E+01
 -10.595  0.4329E+00  0.3768E+01
 -10.585  0.4336E+00  0.3772E+01
 -10.575  0.4349E+00  0.3777E+01
 -10.565  0.4362E+00  0.3781E+01
 -10.555  0.4371E+00  0.3785E+01
 -10.545  0.4379E+00  0.3790E+01
 -10.535  0.4388E+00  0.3794E+01
 -10.525  0.4395E+00  0.3798E+01
 -10.515  0.4402E+00  0.3803E+01
 -10.505  0.4408E+00  0.3807E+01
 -10.495  0.4415E+00  0.3812E+01
 -10.485  0.4422E+00  0.3816E+01
 -10.475  0.4428E+00  0.3821E+01
 -10.465  0.4433E+00  0.3825E+01
 -10.455  0.4439E+00  0.3829E+01
 -10.445  0.4444E+00  0.3834E+01
 -10.435  0.4449E+00  0.3838E+01
 -10.425  0.4454E+00  0.3843E+01
 -10.415  0.4460E+00  0.3847E+01
 -10.405  0.4464E+00  0.3852E+01
 -10.395  0.4468E+00  0.3856E+01
 -10.385  0.4472E+00  0.3861E+01
 -10.375  0.4476E+00  0.3865E+01
 -10.365  0.4480E+00  0.3870E+01
 -10.355  0.4483E+00  0.3874E+01
 -10.345  0.4504E+00  0.3879E+01
 -10.335  0.4510E+00  0.3883E+01
 -10.325  0.4516E+00  0.3888E+01
 -10.315  0.4518E+00  0.3892E+01
 -10.305  0.4521E+00  0.3897E+01
 -10.295  0.4524E+00  0.3901E+01
 -10.285  0.4526E+00  0.3906E+01
 -10.275  0.4528E+00  0.3910E+01
 -10.265  0.4531E+00  0.3915E+01
 -10.255  0.4538E+00  0.3919E+01
 -10.245  0.4544E+00  0.3924E+01
 -10.235  0.4551E+00  0.3928E+01
 -10.225  0.4575E+00  0.3933E+01
 -10.215  0.4591E+00  0.3937E+01
 -10.205  0.4605E+00  0.3942E+01
 -10.195  0.4615E+00  0.3947E+01
 -10.185  0.4625E+00  0.3951E+01
 -10.175  0.4635E+00  0.3956E+01
 -10.165  0.4645E+00  0.3961E+01
 -10.155  0.4653E+00  0.3965E+01
 -10.145  0.4660E+00  0.3970E+01
 -10.135  0.4668E+00  0.3975E+01
 -10.125  0.4675E+00  0.3979E+01
 -10.115  0.4683E+00  0.3984E+01
 -10.105  0.4691E+00  0.3989E+01
 -10.095  0.4698E+00  0.3993E+01
 -10.085  0.4704E+00  0.3998E+01
 -10.075  0.4711E+00  0.4003E+01
 -10.065  0.4718E+00  0.4007E+01
 -10.055  0.4728E+00  0.4012E+01
 -10.045  0.4739E+00  0.4017E+01
 -10.035  0.4751E+00  0.4022E+01
 -10.025  0.4762E+00  0.4026E+01
 -10.015  0.4773E+00  0.4031E+01
 -10.005  0.4782E+00  0.4036E+01
  -9.995  0.4789E+00  0.4041E+01
  -9.985  0.4794E+00  0.4045E+01
  -9.975  0.4800E+00  0.4050E+01
  -9.965  0.4805E+00  0.4055E+01
  -9.955  0.4811E+00  0.4060E+01
  -9.945  0.4816E+00  0.4065E+01
  -9.935  0.4822E+00  0.4069E+01
  -9.925  0.4827E+00  0.4074E+01
  -9.915  0.4832E+00  0.4079E+01
  -9.905  0.4825E+00  0.4084E+01
  -9.895  0.4865E+00  0.4089E+01
  -9.885  0.4884E+00  0.4094E+01
  -9.875  0.4902E+00  0.4099E+01
  -9.865  0.4920E+00  0.4103E+01
  -9.855  0.4935E+00  0.4108E+01
  -9.845  0.4948E+00  0.4113E+01
  -9.835  0.4961E+00  0.4118E+01
  -9.825  0.4973E+00  0.4123E+01
  -9.815  0.4986E+00  0.4128E+01
  -9.805  0.4997E+00  0.4133E+01
  -9.795  0.5007E+00  0.4138E+01
  -9.785  0.7037E+00  0.4144E+01
  -9.775  0.7373E+00  0.4152E+01
  -9.765  0.7701E+00  0.4159E+01
  -9.755  0.8011E+00  0.4167E+01
  -9.745  0.7625E+00  0.4175E+01
  -9.735  0.7690E+00  0.4183E+01
  -9.725  0.7813E+00  0.4190E+01
  -9.715  0.7935E+00  0.4198E+01
  -9.705  0.7786E+00  0.4206E+01
  -9.695  0.7771E+00  0.4214E+01
  -9.685  0.7759E+00  0.4222E+01
  -9.675  0.7826E+00  0.4229E+01
  -9.665  0.7893E+00  0.4237E+01
  -9.655  0.7960E+00  0.4245E+01
  -9.645  0.7919E+00  0.4253E+01
  -9.635  0.7838E+00  0.4261E+01
  -9.625  0.7857E+00  0.4269E+01
  -9.615  0.7874E+00  0.4277E+01
  -9.605  0.7892E+00  0.4285E+01
  -9.595  0.7980E+00  0.4293E+01
  -9.585  0.8050E+00  0.4301E+01
  -9.575  0.8109E+00  0.4309E+01
  -9.565  0.8060E+00  0.4317E+01
  -9.555  0.8051E+00  0.4325E+01
  -9.545  0.8045E+00  0.4333E+01
  -9.535  0.8074E+00  0.4341E+01
  -9.525  0.8100E+00  0.4349E+01
  -9.515  0.8127E+00  0.4357E+01
  -9.505  0.8158E+00  0.4365E+01
  -9.495  0.8192E+00  0.4373E+01
  -9.485  0.8232E+00  0.4382E+01
  -9.475  0.8262E+00  0.4390E+01
  -9.465  0.8207E+00  0.4398E+01
  -9.455  0.8214E+00  0.4406E+01
  -9.445  0.8225E+00  0.4415E+01
  -9.435  0.8240E+00  0.4423E+01
  -9.425  0.8262E+00  0.4431E+01
  -9.415  0.8293E+00  0.4439E+01
  -9.405  0.8324E+00  0.4448E+01
  -9.395  0.8353E+00  0.4456E+01
  -9.385  0.8380E+00  0.4464E+01
  -9.375  0.8404E+00  0.4473E+01
  -9.365  0.8432E+00  0.4481E+01
  -9.355  0.8405E+00  0.4490E+01
  -9.345  0.8402E+00  0.4498E+01
  -9.335  0.8477E+00  0.4506E+01
  -9.325  0.8537E+00  0.4515E+01
  -9.315  0.8584E+00  0.4524E+01
  -9.305  0.8631E+00  0.4532E+01
  -9.295  0.8667E+00  0.4541E+01
  -9.285  0.8704E+00  0.4549E+01
  -9.275  0.8745E+00  0.4558E+01
  -9.265  0.8785E+00  0.4567E+01
  -9.255  0.8825E+00  0.4576E+01
  -9.245  0.8859E+00  0.4585E+01
  -9.235  0.8892E+00  0.4593E+01
  -9.225  0.8882E+00  0.4602E+01
  -9.215  0.8888E+00  0.4611E+01
  -9.205  0.8906E+00  0.4620E+01
  -9.195  0.8925E+00  0.4629E+01
  -9.185  0.8945E+00  0.4638E+01
  -9.175  0.8968E+00  0.4647E+01
  -9.165  0.8991E+00  0.4656E+01
  -9.155  0.9014E+00  0.4665E+01
  -9.145  0.9027E+00  0.4674E+01
  -9.135  0.9051E+00  0.4683E+01
  -9.125  0.9078E+00  0.4692E+01
  -9.115  0.9303E+00  0.4701E+01
  -9.105  0.9429E+00  0.4711E+01
  -9.095  0.9510E+00  0.4720E+01
  -9.085  0.9588E+00  0.4730E+01
  -9.075  0.9626E+00  0.4739E+01
  -9.065  0.9683E+00  0.4749E+01
  -9.055  0.9731E+00  0.4759E+01
  -9.045  0.9785E+00  0.4768E+01
  -9.035  0.9839E+00  0.4778E+01
  -9.025  0.9892E+00  0.4788E+01
  -9.015  0.9944E+00  0.4798E+01
  -9.005  0.9998E+00  0.4808E+01
  -8.995  0.1005E+01  0.4818E+01
  -8.985  0.1009E+01  0.4828E+01
  -8.975  0.1014E+01  0.4838E+01
  -8.965  0.1023E+01  0.4848E+01
  -8.955  0.1068E+01  0.4859E+01
  -8.945  0.1089E+01  0.4870E+01
  -8.935  0.1111E+01  0.4881E+01
  -8.925  0.1130E+01  0.4892E+01
  -8.915  0.1142E+01  0.4903E+01
  -8.905  0.1155E+01  0.4915E+01
  -8.895  0.1169E+01  0.4926E+01
  -8.885  0.1182E+01  0.4938E+01
  -8.875  0.1203E+01  0.4950E+01
  -8.865  0.1232E+01  0.4962E+01
  -8.855  0.1556E+01  0.4976E+01
  -8.845  0.1677E+01  0.4992E+01
  -8.835  0.1729E+01  0.5009E+01
  -8.825  0.1559E+01  0.5026E+01
  -8.815  0.1458E+01  0.5041E+01
  -8.805  0.1401E+01  0.5055E+01
  -8.795  0.1320E+01  0.5069E+01
  -8.785  0.1292E+01  0.5082E+01
  -8.775  0.1272E+01  0.5095E+01
  -8.765  0.1252E+01  0.5107E+01
  -8.755  0.1249E+01  0.5120E+01
  -8.745  0.1286E+01  0.5133E+01
  -8.735  0.9141E+00  0.5144E+01
  -8.725  0.8205E+00  0.5152E+01
  -8.715  0.7439E+00  0.5160E+01
  -8.705  0.7060E+00  0.5167E+01
  -8.695  0.6681E+00  0.5174E+01
  -8.685  0.6302E+00  0.5181E+01
  -8.675  0.5866E+00  0.5187E+01
  -8.665  0.5670E+00  0.5192E+01
  -8.655  0.5814E+00  0.5198E+01
  -8.645  0.5995E+00  0.5204E+01
  -8.635  0.6382E+00  0.5210E+01
  -8.625  0.7038E+00  0.5217E+01
  -8.615  0.7690E+00  0.5224E+01
  -8.605  0.9499E+00  0.5233E+01
  -8.595  0.9363E+00  0.5242E+01
  -8.585  0.9196E+00  0.5251E+01
  -8.575  0.9023E+00  0.5261E+01
  -8.565  0.8913E+00  0.5269E+01
  -8.555  0.8804E+00  0.5278E+01
  -8.545  0.9022E+00  0.5287E+01
  -8.535  0.9957E+00  0.5297E+01
  -8.525  0.1082E+01  0.5307E+01
  -8.515  0.1168E+01  0.5318E+01
  -8.505  0.1266E+01  0.5330E+01
  -8.495  0.1081E+01  0.5342E+01
  -8.485  0.9905E+00  0.5353E+01
  -8.475  0.9737E+00  0.5362E+01
  -8.465  0.9570E+00  0.5372E+01
  -8.455  0.9434E+00  0.5382E+01
  -8.445  0.9306E+00  0.5391E+01
  -8.435  0.9184E+00  0.5400E+01
  -8.425  0.9059E+00  0.5409E+01
  -8.415  0.8932E+00  0.5418E+01
  -8.405  0.8806E+00  0.5427E+01
  -8.395  0.8680E+00  0.5436E+01
  -8.385  0.8407E+00  0.5444E+01
  -8.375  0.8371E+00  0.5453E+01
  -8.365  0.8335E+00  0.5461E+01
  -8.355  0.8290E+00  0.5469E+01
  -8.345  0.8243E+00  0.5478E+01
  -8.335  0.8197E+00  0.5486E+01
  -8.325  0.8431E+00  0.5494E+01
  -8.315  0.8504E+00  0.5503E+01
  -8.305  0.8515E+00  0.5511E+01
  -8.295  0.8499E+00  0.5520E+01
  -8.285  0.8482E+00  0.5528E+01
  -8.275  0.8466E+00  0.5537E+01
  -8.265  0.8446E+00  0.5545E+01
  -8.255  0.8420E+00  0.5554E+01
  -8.245  0.8393E+00  0.5562E+01
  -8.235  0.8367E+00  0.5570E+01
  -8.225  0.8339E+00  0.5579E+01
  -8.215  0.8309E+00  0.5587E+01
  -8.205  0.8141E+00  0.5595E+01
  -8.195  0.7809E+00  0.5603E+01
  -8.185  0.7480E+00  0.5611E+01
  -8.175  0.7173E+00  0.5618E+01
  -8.165  0.7035E+00  0.5625E+01
  -8.155  0.6923E+00  0.5632E+01
  -8.145  0.6810E+00  0.5639E+01
  -8.135  0.6698E+00  0.5646E+01
  -8.125  0.6586E+00  0.5653E+01
  -8.115  0.6473E+00  0.5659E+01
  -8.105  0.6825E+00  0.5666E+01
  -8.095  0.7322E+00  0.5673E+01
  -8.085  0.7470E+00  0.5680E+01
  -8.075  0.7603E+00  0.5688E+01
  -8.065  0.7712E+00  0.5695E+01
  -8.055  0.7679E+00  0.5703E+01
  -8.045  0.7646E+00  0.5711E+01
  -8.035  0.7612E+00  0.5718E+01
  -8.025  0.7561E+00  0.5726E+01
  -8.015  0.7534E+00  0.5734E+01
  -8.005  0.7504E+00  0.5741E+01
  -7.995  0.7505E+00  0.5749E+01
  -7.985  0.7517E+00  0.5756E+01
  -7.975  0.7533E+00  0.5764E+01
  -7.965  0.7548E+00  0.5771E+01
  -7.955  0.7564E+00  0.5779E+01
  -7.945  0.7580E+00  0.5786E+01
  -7.935  0.7596E+00  0.5794E+01
  -7.925  0.7618E+00  0.5801E+01
  -7.915  0.7640E+00  0.5809E+01
  -7.905  0.7748E+00  0.5817E+01
  -7.895  0.8102E+00  0.5825E+01
  -7.885  0.8550E+00  0.5833E+01
  -7.875  0.8998E+00  0.5842E+01
  -7.865  0.8496E+00  0.5851E+01
  -7.855  0.7210E+00  0.5859E+01
  -7.845  0.5354E+00  0.5865E+01
  -7.835  0.5492E+00  0.5870E+01
  -7.825  0.5589E+00  0.5876E+01
  -7.815  0.5686E+00  0.5881E+01
  -7.805  0.5784E+00  0.5887E+01
  -7.795  0.5876E+00  0.5893E+01
  -7.785  0.5966E+00  0.5899E+01
  -7.775  0.6055E+00  0.5905E+01
  -7.765  0.6145E+00  0.5911E+01
  -7.755  0.6238E+00  0.5917E+01
  -7.745  0.6330E+00  0.5923E+01
  -7.735  0.6421E+00  0.5930E+01
  -7.725  0.6795E+00  0.5936E+01
  -7.715  0.8904E+00  0.5944E+01
  -7.705  0.8572E+00  0.5953E+01
  -7.695  0.8241E+00  0.5962E+01
  -7.685  0.7909E+00  0.5970E+01
  -7.675  0.7577E+00  0.5977E+01
  -7.665  0.7244E+00  0.5985E+01
  -7.655  0.7074E+00  0.5992E+01
  -7.645  0.7025E+00  0.5999E+01
  -7.635  0.6988E+00  0.6006E+01
  -7.625  0.6952E+00  0.6013E+01
  -7.615  0.6923E+00  0.6020E+01
  -7.605  0.6888E+00  0.6027E+01
  -7.595  0.6857E+00  0.6034E+01
  -7.585  0.6820E+00  0.6040E+01
  -7.575  0.6788E+00  0.6047E+01
  -7.565  0.6777E+00  0.6054E+01
  -7.555  0.6767E+00  0.6061E+01
  -7.545  0.6756E+00  0.6068E+01
  -7.535  0.6746E+00  0.6074E+01
  -7.525  0.6734E+00  0.6081E+01
  -7.515  0.6722E+00  0.6088E+01
  -7.505  0.6711E+00  0.6095E+01
  -7.495  0.6700E+00  0.6101E+01
  -7.485  0.6689E+00  0.6108E+01
  -7.475  0.6678E+00  0.6115E+01
  -7.465  0.6666E+00  0.6121E+01
  -7.455  0.6653E+00  0.6128E+01
  -7.445  0.6641E+00  0.6135E+01
  -7.435  0.6629E+00  0.6141E+01
  -7.425  0.6618E+00  0.6148E+01
  -7.415  0.6606E+00  0.6154E+01
  -7.405  0.6594E+00  0.6161E+01
  -7.395  0.6583E+00  0.6168E+01
  -7.385  0.6571E+00  0.6174E+01
  -7.375  0.6560E+00  0.6181E+01
  -7.365  0.6548E+00  0.6187E+01
  -7.355  0.6537E+00  0.6194E+01
  -7.345  0.6526E+00  0.6200E+01
  -7.335  0.6523E+00  0.6207E+01
  -7.325  0.6514E+00  0.6213E+01
  -7.315  0.6506E+00  0.6220E+01
  -7.305  0.6500E+00  0.6226E+01
  -7.295  0.6491E+00  0.6233E+01
  -7.285  0.6481E+00  0.6239E+01
  -7.275  0.6473E+00  0.6246E+01
  -7.265  0.6464E+00  0.6252E+01
  -7.255  0.6457E+00  0.6259E+01
  -7.245  0.6451E+00  0.6265E+01
  -7.235  0.6444E+00  0.6272E+01
  -7.225  0.6432E+00  0.6278E+01
  -7.215  0.6421E+00  0.6285E+01
  -7.205  0.6410E+00  0.6291E+01
  -7.195  0.6399E+00  0.6297E+01
  -7.185  0.6388E+00  0.6304E+01
  -7.175  0.6377E+00  0.6310E+01
  -7.165  0.6365E+00  0.6317E+01
  -7.155  0.6354E+00  0.6323E+01
  -7.145  0.6343E+00  0.6329E+01
  -7.135  0.6332E+00  0.6336E+01
  -7.125  0.6321E+00  0.6342E+01
  -7.115  0.6311E+00  0.6348E+01
  -7.105  0.6301E+00  0.6355E+01
  -7.095  0.6290E+00  0.6361E+01
  -7.085  0.6280E+00  0.6367E+01
  -7.075  0.6271E+00  0.6373E+01
  -7.065  0.6285E+00  0.6380E+01
  -7.055  0.6284E+00  0.6386E+01
  -7.045  0.6280E+00  0.6392E+01
  -7.035  0.6279E+00  0.6399E+01
  -7.025  0.6282E+00  0.6405E+01
  -7.015  0.6277E+00  0.6411E+01
  -7.005  0.6265E+00  0.6417E+01
  -6.995  0.6254E+00  0.6424E+01
  -6.985  0.6242E+00  0.6430E+01
  -6.975  0.6230E+00  0.6436E+01
  -6.965  0.6219E+00  0.6442E+01
  -6.955  0.6207E+00  0.6449E+01
  -6.945  0.6196E+00  0.6455E+01
  -6.935  0.6185E+00  0.6461E+01
  -6.925  0.6174E+00  0.6467E+01
  -6.915  0.6163E+00  0.6473E+01
  -6.905  0.6152E+00  0.6479E+01
  -6.895  0.6142E+00  0.6486E+01
  -6.885  0.6132E+00  0.6492E+01
  -6.875  0.6123E+00  0.6498E+01
  -6.865  0.6113E+00  0.6504E+01
  -6.855  0.6103E+00  0.6510E+01
  -6.845  0.6093E+00  0.6516E+01
  -6.835  0.6084E+00  0.6522E+01
  -6.825  0.6078E+00  0.6528E+01
  -6.815  0.6111E+00  0.6534E+01
  -6.805  0.6143E+00  0.6541E+01
  -6.795  0.6139E+00  0.6547E+01
  -6.785  0.6129E+00  0.6553E+01
  -6.775  0.6119E+00  0.6559E+01
  -6.765  0.6105E+00  0.6565E+01
  -6.755  0.6091E+00  0.6571E+01
  -6.745  0.6078E+00  0.6577E+01
  -6.735  0.6066E+00  0.6583E+01
  -6.725  0.6055E+00  0.6589E+01
  -6.715  0.6043E+00  0.6595E+01
  -6.705  0.6031E+00  0.6602E+01
  -6.695  0.6022E+00  0.6608E+01
  -6.685  0.6012E+00  0.6614E+01
  -6.675  0.6004E+00  0.6620E+01
  -6.665  0.5995E+00  0.6626E+01
  -6.655  0.5987E+00  0.6632E+01
  -6.645  0.5979E+00  0.6638E+01
  -6.635  0.5969E+00  0.6644E+01
  -6.625  0.5959E+00  0.6649E+01
  -6.615  0.5955E+00  0.6655E+01
  -6.605  0.5951E+00  0.6661E+01
  -6.595  0.5948E+00  0.6667E+01
  -6.585  0.6022E+00  0.6673E+01
  -6.575  0.6011E+00  0.6679E+01
  -6.565  0.6000E+00  0.6685E+01
  -6.555  0.5990E+00  0.6691E+01
  -6.545  0.5979E+00  0.6697E+01
  -6.535  0.5968E+00  0.6703E+01
  -6.525  0.5958E+00  0.6709E+01
  -6.515  0.5947E+00  0.6715E+01
  -6.505  0.5936E+00  0.6721E+01
  -6.495  0.5926E+00  0.6727E+01
  -6.485  0.5917E+00  0.6733E+01
  -6.475  0.5908E+00  0.6739E+01
  -6.465  0.5900E+00  0.6745E+01
  -6.455  0.5886E+00  0.6751E+01
  -6.445  0.5876E+00  0.6757E+01
  -6.435  0.5867E+00  0.6762E+01
  -6.425  0.5858E+00  0.6768E+01
  -6.415  0.5854E+00  0.6774E+01
  -6.405  0.5854E+00  0.6780E+01
  -6.395  0.5855E+00  0.6786E+01
  -6.385  0.5866E+00  0.6792E+01
  -6.375  0.5924E+00  0.6798E+01
  -6.365  0.5923E+00  0.6804E+01
  -6.355  0.5911E+00  0.6810E+01
  -6.345  0.5898E+00  0.6815E+01
  -6.335  0.5885E+00  0.6821E+01
  -6.325  0.5873E+00  0.6827E+01
  -6.315  0.5860E+00  0.6833E+01
  -6.305  0.5848E+00  0.6839E+01
  -6.295  0.5836E+00  0.6845E+01
  -6.285  0.5827E+00  0.6851E+01
  -6.275  0.5817E+00  0.6856E+01
  -6.265  0.5809E+00  0.6862E+01
  -6.255  0.5801E+00  0.6868E+01
  -6.245  0.5793E+00  0.6874E+01
  -6.235  0.5785E+00  0.6880E+01
  -6.225  0.5780E+00  0.6885E+01
  -6.215  0.5787E+00  0.6891E+01
  -6.205  0.5793E+00  0.6897E+01
  -6.195  0.5817E+00  0.6903E+01
  -6.185  0.5856E+00  0.6909E+01
  -6.175  0.5843E+00  0.6914E+01
  -6.165  0.5831E+00  0.6920E+01
  -6.155  0.5820E+00  0.6926E+01
  -6.145  0.5813E+00  0.6932E+01
  -6.135  0.5806E+00  0.6938E+01
  -6.125  0.5799E+00  0.6944E+01
  -6.115  0.5794E+00  0.6949E+01
  -6.105  0.5785E+00  0.6955E+01
  -6.095  0.5775E+00  0.6961E+01
  -6.085  0.5765E+00  0.6967E+01
  -6.075  0.5755E+00  0.6972E+01
  -6.065  0.5745E+00  0.6978E+01
  -6.055  0.5735E+00  0.6984E+01
  -6.045  0.5747E+00  0.6990E+01
  -6.035  0.5765E+00  0.6995E+01
  -6.025  0.5821E+00  0.7001E+01
  -6.015  0.5803E+00  0.7007E+01
  -6.005  0.5785E+00  0.7013E+01
  -5.995  0.5772E+00  0.7019E+01
  -5.985  0.5759E+00  0.7024E+01
  -5.975  0.5746E+00  0.7030E+01
  -5.965  0.5733E+00  0.7036E+01
  -5.955  0.5721E+00  0.7042E+01
  -5.945  0.5719E+00  0.7047E+01
  -5.935  0.5718E+00  0.7053E+01
  -5.925  0.5717E+00  0.7059E+01
  -5.915  0.5759E+00  0.7064E+01
  -5.905  0.5749E+00  0.7070E+01
  -5.895  0.5804E+00  0.7076E+01
  -5.885  0.5840E+00  0.7082E+01
  -5.875  0.5812E+00  0.7088E+01
  -5.865  0.5785E+00  0.7093E+01
  -5.855  0.5757E+00  0.7099E+01
  -5.845  0.5730E+00  0.7105E+01
  -5.835  0.5702E+00  0.7111E+01
  -5.825  0.5674E+00  0.7116E+01
  -5.815  0.5664E+00  0.7122E+01
  -5.805  0.5668E+00  0.7128E+01
  -5.795  0.5701E+00  0.7133E+01
  -5.785  0.5741E+00  0.7139E+01
  -5.775  0.5866E+00  0.7145E+01
  -5.765  0.5857E+00  0.7151E+01
  -5.755  0.5813E+00  0.7157E+01
  -5.745  0.5754E+00  0.7162E+01
  -5.735  0.5695E+00  0.7168E+01
  -5.725  0.5635E+00  0.7174E+01
  -5.715  0.5681E+00  0.7179E+01
  -5.705  0.5794E+00  0.7185E+01
  -5.695  0.5764E+00  0.7191E+01
  -5.685  0.5643E+00  0.7197E+01
  -5.675  0.6012E+00  0.7203E+01
  -5.665  0.5620E+00  0.7208E+01
  -5.655  0.6068E+00  0.7214E+01
  -5.645  0.4621E+00  0.7220E+01
  -5.635  0.3534E+00  0.7223E+01
  -5.625  0.3542E+00  0.7227E+01
  -5.615  0.3550E+00  0.7231E+01
  -5.605  0.3559E+00  0.7234E+01
  -5.595  0.3567E+00  0.7238E+01
  -5.585  0.3576E+00  0.7241E+01
  -5.575  0.3584E+00  0.7245E+01
  -5.565  0.3593E+00  0.7248E+01
  -5.555  0.3603E+00  0.7252E+01
  -5.545  0.3613E+00  0.7256E+01
  -5.535  0.3622E+00  0.7259E+01
  -5.525  0.3632E+00  0.7263E+01
  -5.515  0.3642E+00  0.7267E+01
  -5.505  0.3652E+00  0.7270E+01
  -5.495  0.3662E+00  0.7274E+01
  -5.485  0.3670E+00  0.7277E+01
  -5.475  0.3679E+00  0.7281E+01
  -5.465  0.3689E+00  0.7285E+01
  -5.455  0.3699E+00  0.7289E+01
  -5.445  0.3710E+00  0.7292E+01
  -5.435  0.3721E+00  0.7296E+01
  -5.425  0.3733E+00  0.7300E+01
  -5.415  0.3746E+00  0.7303E+01
  -5.405  0.3758E+00  0.7307E+01
  -5.395  0.3771E+00  0.7311E+01
  -5.385  0.3783E+00  0.7315E+01
  -5.375  0.3796E+00  0.7318E+01
  -5.365  0.3809E+00  0.7322E+01
  -5.355  0.3824E+00  0.7326E+01
  -5.345  0.3838E+00  0.7330E+01
  -5.335  0.3853E+00  0.7334E+01
  -5.325  0.3868E+00  0.7338E+01
  -5.315  0.3882E+00  0.7342E+01
  -5.305  0.3897E+00  0.7345E+01
  -5.295  0.3913E+00  0.7349E+01
  -5.285  0.3929E+00  0.7353E+01
  -5.275  0.3946E+00  0.7357E+01
  -5.265  0.3962E+00  0.7361E+01
  -5.255  0.3981E+00  0.7365E+01
  -5.245  0.3999E+00  0.7369E+01
  -5.235  0.4018E+00  0.7373E+01
  -5.225  0.4039E+00  0.7377E+01
  -5.215  0.4059E+00  0.7381E+01
  -5.205  0.4079E+00  0.7385E+01
  -5.195  0.4099E+00  0.7389E+01
  -5.185  0.4119E+00  0.7393E+01
  -5.175  0.4139E+00  0.7398E+01
  -5.165  0.4159E+00  0.7402E+01
  -5.155  0.4182E+00  0.7406E+01
  -5.145  0.4208E+00  0.7410E+01
  -5.135  0.4236E+00  0.7414E+01
  -5.125  0.4264E+00  0.7419E+01
  -5.115  0.4292E+00  0.7423E+01
  -5.105  0.4321E+00  0.7427E+01
  -5.095  0.4350E+00  0.7431E+01
  -5.085  0.4380E+00  0.7436E+01
  -5.075  0.4414E+00  0.7440E+01
  -5.065  0.4450E+00  0.7445E+01
  -5.055  0.4485E+00  0.7449E+01
  -5.045  0.4521E+00  0.7454E+01
  -5.035  0.4563E+00  0.7458E+01
  -5.025  0.4606E+00  0.7463E+01
  -5.015  0.4648E+00  0.7467E+01
  -5.005  0.4698E+00  0.7472E+01
  -4.995  0.4753E+00  0.7477E+01
  -4.985  0.4812E+00  0.7482E+01
  -4.975  0.4870E+00  0.7486E+01
  -4.965  0.4929E+00  0.7491E+01
  -4.955  0.4987E+00  0.7496E+01
  -4.945  0.5050E+00  0.7501E+01
  -4.935  0.5128E+00  0.7506E+01
  -4.925  0.5232E+00  0.7512E+01
  -4.915  0.5335E+00  0.7517E+01
  -4.905  0.5443E+00  0.7522E+01
  -4.895  0.5565E+00  0.7528E+01
  -4.885  0.5687E+00  0.7533E+01
  -4.875  0.5810E+00  0.7539E+01
  -4.865  0.6036E+00  0.7545E+01
  -4.855  0.6328E+00  0.7551E+01
  -4.845  0.6621E+00  0.7558E+01
  -4.835  0.7005E+00  0.7564E+01
  -4.825  0.7684E+00  0.7572E+01
  -4.815  0.1353E+01  0.7582E+01
  -4.805  0.7055E+00  0.7590E+01
  -4.795  0.6506E+00  0.7597E+01
  -4.785  0.5959E+00  0.7603E+01
  -4.775  0.5416E+00  0.7609E+01
  -4.765  0.5600E+00  0.7614E+01
  -4.755  0.5798E+00  0.7620E+01
  -4.745  0.4864E+00  0.7626E+01
  -4.735  0.5188E+00  0.7631E+01
  -4.725  0.5500E+00  0.7636E+01
  -4.715  0.5299E+00  0.7642E+01
  -4.705  0.5099E+00  0.7647E+01
  -4.695  0.4898E+00  0.7652E+01
  -4.685  0.4698E+00  0.7657E+01
  -4.675  0.4497E+00  0.7661E+01
  -4.665  0.4345E+00  0.7666E+01
  -4.655  0.4310E+00  0.7670E+01
  -4.645  0.4274E+00  0.7674E+01
  -4.635  0.4239E+00  0.7679E+01
  -4.625  0.4203E+00  0.7683E+01
  -4.615  0.4168E+00  0.7687E+01
  -4.605  0.4132E+00  0.7691E+01
  -4.595  0.3774E+00  0.7695E+01
  -4.585  0.3781E+00  0.7699E+01
  -4.575  0.3787E+00  0.7702E+01
  -4.565  0.3793E+00  0.7706E+01
  -4.555  0.3797E+00  0.7710E+01
  -4.545  0.3747E+00  0.7714E+01
  -4.535  0.3697E+00  0.7718E+01
  -4.525  0.3647E+00  0.7721E+01
  -4.515  0.3588E+00  0.7725E+01
  -4.505  0.3522E+00  0.7728E+01
  -4.495  0.3454E+00  0.7732E+01
  -4.485  0.3419E+00  0.7735E+01
  -4.475  0.3420E+00  0.7739E+01
  -4.465  0.3391E+00  0.7742E+01
  -4.455  0.3356E+00  0.7746E+01
  -4.445  0.3321E+00  0.7749E+01
  -4.435  0.3287E+00  0.7752E+01
  -4.425  0.3252E+00  0.7755E+01
  -4.415  0.3217E+00  0.7759E+01
  -4.405  0.3183E+00  0.7762E+01
  -4.395  0.3148E+00  0.7765E+01
  -4.385  0.2947E+00  0.7768E+01
  -4.375  0.2935E+00  0.7771E+01
  -4.365  0.2924E+00  0.7774E+01
  -4.355  0.2912E+00  0.7777E+01
  -4.345  0.2901E+00  0.7780E+01
  -4.335  0.2889E+00  0.7783E+01
  -4.325  0.2878E+00  0.7786E+01
  -4.315  0.2867E+00  0.7788E+01
  -4.305  0.2839E+00  0.7791E+01
  -4.295  0.2798E+00  0.7794E+01
  -4.285  0.2757E+00  0.7797E+01
  -4.275  0.2716E+00  0.7800E+01
  -4.265  0.2675E+00  0.7802E+01
  -4.255  0.2634E+00  0.7805E+01
  -4.245  0.2591E+00  0.7808E+01
  -4.235  0.2567E+00  0.7810E+01
  -4.225  0.2555E+00  0.7813E+01
  -4.215  0.2544E+00  0.7815E+01
  -4.205  0.2533E+00  0.7818E+01
  -4.195  0.2519E+00  0.7820E+01
  -4.185  0.2503E+00  0.7823E+01
  -4.175  0.2486E+00  0.7825E+01
  -4.165  0.2470E+00  0.7828E+01
  -4.155  0.2450E+00  0.7830E+01
  -4.145  0.2430E+00  0.7833E+01
  -4.135  0.2409E+00  0.7835E+01
  -4.125  0.2383E+00  0.7837E+01
  -4.115  0.2357E+00  0.7840E+01
  -4.105  0.2224E+00  0.7842E+01
  -4.095  0.2212E+00  0.7844E+01
  -4.085  0.2200E+00  0.7847E+01
  -4.075  0.2188E+00  0.7849E+01
  -4.065  0.2176E+00  0.7851E+01
  -4.055  0.2164E+00  0.7853E+01
  -4.045  0.2153E+00  0.7855E+01
  -4.035  0.2141E+00  0.7857E+01
  -4.025  0.2129E+00  0.7860E+01
  -4.015  0.2117E+00  0.7862E+01
  -4.005  0.2105E+00  0.7864E+01
  -3.995  0.2087E+00  0.7866E+01
  -3.985  0.2057E+00  0.7868E+01
  -3.975  0.2027E+00  0.7870E+01
  -3.965  0.1997E+00  0.7872E+01
  -3.955  0.1967E+00  0.7874E+01
  -3.945  0.1937E+00  0.7876E+01
  -3.935  0.1908E+00  0.7878E+01
  -3.925  0.1878E+00  0.7880E+01
  -3.915  0.1869E+00  0.7882E+01
  -3.905  0.1860E+00  0.7884E+01
  -3.895  0.1849E+00  0.7885E+01
  -3.885  0.1837E+00  0.7887E+01
  -3.875  0.1826E+00  0.7889E+01
  -3.865  0.1814E+00  0.7891E+01
  -3.855  0.1802E+00  0.7893E+01
  -3.845  0.1790E+00  0.7894E+01
  -3.835  0.1775E+00  0.7896E+01
  -3.825  0.1760E+00  0.7898E+01
  -3.815  0.1745E+00  0.7900E+01
  -3.805  0.1729E+00  0.7902E+01
  -3.795  0.1712E+00  0.7903E+01
  -3.785  0.1693E+00  0.7905E+01
  -3.775  0.1674E+00  0.7907E+01
  -3.765  0.1655E+00  0.7908E+01
  -3.755  0.1558E+00  0.7910E+01
  -3.745  0.1548E+00  0.7911E+01
  -3.735  0.1538E+00  0.7913E+01
  -3.725  0.1529E+00  0.7915E+01
  -3.715  0.1519E+00  0.7916E+01
  -3.705  0.1510E+00  0.7918E+01
  -3.695  0.1500E+00  0.7919E+01
  -3.685  0.1490E+00  0.7921E+01
  -3.675  0.1481E+00  0.7922E+01
  -3.665  0.1471E+00  0.7924E+01
  -3.655  0.1462E+00  0.7925E+01
  -3.645  0.1452E+00  0.7926E+01
  -3.635  0.1442E+00  0.7928E+01
  -3.625  0.1433E+00  0.7929E+01
  -3.615  0.1411E+00  0.7931E+01
  -3.605  0.1389E+00  0.7932E+01
  -3.595  0.1368E+00  0.7934E+01
  -3.585  0.1346E+00  0.7935E+01
  -3.575  0.1324E+00  0.7936E+01
  -3.565  0.1302E+00  0.7938E+01
  -3.555  0.1281E+00  0.7939E+01
  -3.545  0.1259E+00  0.7940E+01
  -3.535  0.1241E+00  0.7941E+01
  -3.525  0.1234E+00  0.7943E+01
  -3.515  0.1224E+00  0.7944E+01
  -3.505  0.1213E+00  0.7945E+01
  -3.495  0.1203E+00  0.7946E+01
  -3.485  0.1193E+00  0.7947E+01
  -3.475  0.1181E+00  0.7949E+01
  -3.465  0.1168E+00  0.7950E+01
  -3.455  0.1155E+00  0.7951E+01
  -3.445  0.1142E+00  0.7952E+01
  -3.435  0.1129E+00  0.7953E+01
  -3.425  0.1116E+00  0.7954E+01
  -3.415  0.1103E+00  0.7955E+01
  -3.405  0.1090E+00  0.7957E+01
  -3.395  0.1077E+00  0.7958E+01
  -3.385  0.1064E+00  0.7959E+01
  -3.375  0.1051E+00  0.7960E+01
  -3.365  0.1038E+00  0.7961E+01
  -3.355  0.1025E+00  0.7962E+01
  -3.345  0.1012E+00  0.7963E+01
  -3.335  0.9333E-01  0.7964E+01
  -3.325  0.9260E-01  0.7965E+01
  -3.315  0.9188E-01  0.7966E+01
  -3.305  0.9115E-01  0.7967E+01
  -3.295  0.9043E-01  0.7967E+01
  -3.285  0.8970E-01  0.7968E+01
  -3.275  0.8898E-01  0.7969E+01
  -3.265  0.8825E-01  0.7970E+01
  -3.255  0.8753E-01  0.7971E+01
  -3.245  0.8680E-01  0.7972E+01
  -3.235  0.8608E-01  0.7973E+01
  -3.225  0.8535E-01  0.7974E+01
  -3.215  0.8463E-01  0.7974E+01
  -3.205  0.8380E-01  0.7975E+01
  -3.195  0.8197E-01  0.7976E+01
  -3.185  0.8014E-01  0.7977E+01
  -3.175  0.7831E-01  0.7978E+01
  -3.165  0.7649E-01  0.7979E+01
  -3.155  0.7466E-01  0.7979E+01
  -3.145  0.7281E-01  0.7980E+01
  -3.135  0.7095E-01  0.7981E+01
  -3.125  0.6909E-01  0.7981E+01
  -3.115  0.6723E-01  0.7982E+01
  -3.105  0.6537E-01  0.7983E+01
  -3.095  0.6352E-01  0.7983E+01
  -3.085  0.6166E-01  0.7984E+01
  -3.075  0.6072E-01  0.7985E+01
  -3.065  0.5992E-01  0.7985E+01
  -3.055  0.5912E-01  0.7986E+01
  -3.045  0.5832E-01  0.7986E+01
  -3.035  0.5752E-01  0.7987E+01
  -3.025  0.5673E-01  0.7988E+01
  -3.015  0.5593E-01  0.7988E+01
  -3.005  0.5513E-01  0.7989E+01
  -2.995  0.5433E-01  0.7989E+01
  -2.985  0.5353E-01  0.7990E+01
  -2.975  0.5274E-01  0.7990E+01
  -2.965  0.5194E-01  0.7991E+01
  -2.955  0.5114E-01  0.7991E+01
  -2.945  0.5034E-01  0.7992E+01
  -2.935  0.4954E-01  0.7992E+01
  -2.925  0.4874E-01  0.7993E+01
  -2.915  0.4795E-01  0.7993E+01
  -2.905  0.4715E-01  0.7994E+01
  -2.895  0.4635E-01  0.7994E+01
  -2.885  0.4555E-01  0.7995E+01
  -2.875  0.3165E-01  0.7995E+01
  -2.865  0.3063E-01  0.7995E+01
  -2.855  0.2961E-01  0.7996E+01
  -2.845  0.2859E-01  0.7996E+01
  -2.835  0.2757E-01  0.7996E+01
  -2.825  0.2655E-01  0.7997E+01
  -2.815  0.2553E-01  0.7997E+01
  -2.805  0.2451E-01  0.7997E+01
  -2.795  0.2349E-01  0.7997E+01
  -2.785  0.2247E-01  0.7998E+01
  -2.775  0.2145E-01  0.7998E+01
  -2.765  0.2043E-01  0.7998E+01
  -2.755  0.1941E-01  0.7998E+01
  -2.745  0.1838E-01  0.7998E+01
  -2.735  0.1736E-01  0.7999E+01
  -2.725  0.1634E-01  0.7999E+01
  -2.715  0.1532E-01  0.7999E+01
  -2.705  0.1430E-01  0.7999E+01
  -2.695  0.1328E-01  0.7999E+01
  -2.685  0.1226E-01  0.7999E+01
  -2.675  0.1124E-01  0.7999E+01
  -2.665  0.1022E-01  0.7999E+01
  -2.655  0.9200E-02  0.8000E+01
  -2.645  0.8179E-02  0.8000E+01
  -2.635  0.7159E-02  0.8000E+01
  -2.625  0.6138E-02  0.8000E+01
  -2.615  0.5118E-02  0.8000E+01
  -2.605  0.4097E-02  0.8000E+01
  -2.595  0.3077E-02  0.8000E+01
  -2.585  0.2056E-02  0.8000E+01
  -2.575  0.1036E-02  0.8000E+01
  -2.565  0.1534E-04  0.8000E+01
  -2.555  0.1027E-02  0.8000E+01
  -2.545  0.2070E-02  0.8000E+01
  -2.535  0.3113E-02  0.8000E+01
  -2.525  0.4156E-02  0.8000E+01
  -2.515  0.5199E-02  0.8000E+01
  -2.505  0.6242E-02  0.8000E+01
  -2.495  0.7285E-02  0.8000E+01
  -2.485  0.8328E-02  0.8000E+01
  -2.475  0.9371E-02  0.8000E+01
  -2.465  0.1041E-01  0.8001E+01
  -2.455  0.1146E-01  0.8001E+01
  -2.445  0.1250E-01  0.8001E+01
  -2.435  0.1354E-01  0.8001E+01
  -2.425  0.1459E-01  0.8001E+01
  -2.415  0.1563E-01  0.8001E+01
  -2.405  0.1667E-01  0.8001E+01
  -2.395  0.1772E-01  0.8002E+01
  -2.385  0.1876E-01  0.8002E+01
  -2.375  0.1980E-01  0.8002E+01
  -2.365  0.2084E-01  0.8002E+01
  -2.355  0.2189E-01  0.8002E+01
  -2.345  0.2293E-01  0.8003E+01
  -2.335  0.2397E-01  0.8003E+01
  -2.325  0.2502E-01  0.8003E+01
  -2.315  0.2606E-01  0.8003E+01
  -2.305  0.2710E-01  0.8004E+01
  -2.295  0.2815E-01  0.8004E+01
  -2.285  0.2919E-01  0.8004E+01
  -2.275  0.3023E-01  0.8004E+01
  -2.265  0.3127E-01  0.8005E+01
  -2.255  0.3232E-01  0.8005E+01
  -2.245  0.4746E-01  0.8005E+01
  -2.235  0.4830E-01  0.8006E+01
  -2.225  0.4913E-01  0.8006E+01
  -2.215  0.4996E-01  0.8007E+01
  -2.205  0.5079E-01  0.8007E+01
  -2.195  0.5162E-01  0.8008E+01
  -2.185  0.5245E-01  0.8008E+01
  -2.175  0.5329E-01  0.8009E+01
  -2.165  0.5412E-01  0.8009E+01
  -2.155  0.5495E-01  0.8010E+01
  -2.145  0.5578E-01  0.8011E+01
  -2.135  0.5661E-01  0.8011E+01
  -2.125  0.5744E-01  0.8012E+01
  -2.115  0.5827E-01  0.8012E+01
  -2.105  0.5911E-01  0.8013E+01
  -2.095  0.5994E-01  0.8013E+01
  -2.085  0.6077E-01  0.8014E+01
  -2.075  0.6160E-01  0.8015E+01
  -2.065  0.6243E-01  0.8015E+01
  -2.055  0.6391E-01  0.8016E+01
  -2.045  0.6611E-01  0.8017E+01
  -2.035  0.6830E-01  0.8017E+01
  -2.025  0.7050E-01  0.8018E+01
  -2.015  0.7270E-01  0.8019E+01
  -2.005  0.7489E-01  0.8019E+01
  -1.995  0.7709E-01  0.8020E+01
  -1.985  0.7929E-01  0.8021E+01
  -1.975  0.8136E-01  0.8022E+01
  -1.965  0.8341E-01  0.8023E+01
  -1.955  0.8545E-01  0.8023E+01
  -1.945  0.8750E-01  0.8024E+01
  -1.935  0.8925E-01  0.8025E+01
  -1.925  0.8994E-01  0.8026E+01
  -1.915  0.9062E-01  0.8027E+01
  -1.905  0.9131E-01  0.8028E+01
  -1.895  0.9200E-01  0.8029E+01
  -1.885  0.9268E-01  0.8030E+01
  -1.875  0.9337E-01  0.8031E+01
  -1.865  0.9406E-01  0.8032E+01
  -1.855  0.9474E-01  0.8033E+01
  -1.845  0.9543E-01  0.8033E+01
  -1.835  0.9612E-01  0.8034E+01
  -1.825  0.9681E-01  0.8035E+01
  -1.815  0.1084E+00  0.8036E+01
  -1.805  0.1099E+00  0.8037E+01
  -1.795  0.1114E+00  0.8039E+01
  -1.785  0.1129E+00  0.8040E+01
  -1.775  0.1144E+00  0.8041E+01
  -1.765  0.1159E+00  0.8042E+01
  -1.755  0.1174E+00  0.8043E+01
  -1.745  0.1189E+00  0.8044E+01
  -1.735  0.1204E+00  0.8046E+01
  -1.725  0.1219E+00  0.8047E+01
  -1.715  0.1233E+00  0.8048E+01
  -1.705  0.1248E+00  0.8049E+01
  -1.695  0.1263E+00  0.8050E+01
  -1.685  0.1278E+00  0.8052E+01
  -1.675  0.1293E+00  0.8053E+01
  -1.665  0.1305E+00  0.8054E+01
  -1.655  0.1317E+00  0.8056E+01
  -1.645  0.1352E+00  0.8057E+01
  -1.635  0.1387E+00  0.8058E+01
  -1.625  0.1418E+00  0.8060E+01
  -1.615  0.1447E+00  0.8061E+01
  -1.605  0.1475E+00  0.8063E+01
  -1.595  0.1503E+00  0.8064E+01
  -1.585  0.1531E+00  0.8066E+01
  -1.575  0.1559E+00  0.8067E+01
  -1.565  0.1587E+00  0.8069E+01
  -1.555  0.1595E+00  0.8070E+01
  -1.545  0.1601E+00  0.8072E+01
  -1.535  0.1608E+00  0.8074E+01
  -1.525  0.1615E+00  0.8075E+01
  -1.515  0.1621E+00  0.8077E+01
  -1.505  0.1628E+00  0.8078E+01
  -1.495  0.1634E+00  0.8080E+01
  -1.485  0.1641E+00  0.8082E+01
  -1.475  0.1648E+00  0.8083E+01
  -1.465  0.1840E+00  0.8085E+01
  -1.455  0.1863E+00  0.8087E+01
  -1.445  0.1885E+00  0.8089E+01
  -1.435  0.1907E+00  0.8091E+01
  -1.425  0.1930E+00  0.8093E+01
  -1.415  0.1952E+00  0.8095E+01
  -1.405  0.1975E+00  0.8097E+01
  -1.395  0.1997E+00  0.8099E+01
  -1.385  0.2020E+00  0.8101E+01
  -1.375  0.2042E+00  0.8103E+01
  -1.365  0.2064E+00  0.8105E+01
  -1.355  0.2107E+00  0.8107E+01
  -1.345  0.2184E+00  0.8109E+01
  -1.335  0.2238E+00  0.8111E+01
  -1.325  0.2286E+00  0.8113E+01
  -1.315  0.2331E+00  0.8116E+01
  -1.305  0.2370E+00  0.8118E+01
  -1.295  0.2402E+00  0.8120E+01
  -1.285  0.2433E+00  0.8123E+01
  -1.275  0.2459E+00  0.8125E+01
  -1.265  0.2445E+00  0.8128E+01
  -1.255  0.2431E+00  0.8130E+01
  -1.245  0.2417E+00  0.8133E+01
  -1.235  0.2403E+00  0.8135E+01
  -1.225  0.2750E+00  0.8137E+01
  -1.215  0.2768E+00  0.8140E+01
  -1.205  0.2786E+00  0.8143E+01
  -1.195  0.2804E+00  0.8146E+01
  -1.185  0.2822E+00  0.8149E+01
  -1.175  0.2840E+00  0.8151E+01
  -1.165  0.2858E+00  0.8154E+01
  -1.155  0.2902E+00  0.8157E+01
  -1.145  0.3047E+00  0.8160E+01
  -1.135  0.3191E+00  0.8163E+01
  -1.125  0.3336E+00  0.8166E+01
  -1.115  0.3480E+00  0.8170E+01
  -1.105  0.3625E+00  0.8173E+01
  -1.095  0.3769E+00  0.8177E+01
  -1.085  0.3914E+00  0.8181E+01
  -1.075  0.3812E+00  0.8185E+01
  -1.065  0.4269E+00  0.8189E+01
  -1.055  0.4090E+00  0.8193E+01
  -1.045  0.3937E+00  0.8197E+01
  -1.035  0.3788E+00  0.8201E+01
  -1.025  0.3907E+00  0.8204E+01
  -1.015  0.4172E+00  0.8208E+01
  -1.005  0.4435E+00  0.8213E+01
  -0.995  0.4701E+00  0.8217E+01
  -0.985  0.4979E+00  0.8222E+01
  -0.975  0.5257E+00  0.8227E+01
  -0.965  0.7222E+00  0.8234E+01
  -0.955  0.5355E+00  0.8240E+01
  -0.945  0.5786E+00  0.8246E+01
  -0.935  0.6264E+00  0.8252E+01
  -0.925  0.6794E+00  0.8258E+01
  -0.915  0.8080E+00  0.8269E+01
  -0.905  0.1139E+01  0.8278E+01
  -0.895  0.8729E+00  0.8290E+01
  -0.885  0.8088E+00  0.8298E+01
  -0.875  0.7608E+00  0.8306E+01
  -0.865  0.7169E+00  0.8314E+01
  -0.855  0.6736E+00  0.8321E+01
  -0.845  0.6363E+00  0.8327E+01
  -0.835  0.6136E+00  0.8333E+01
  -0.825  0.5972E+00  0.8339E+01
  -0.815  0.5823E+00  0.8345E+01
  -0.805  0.5690E+00  0.8351E+01
  -0.795  0.5559E+00  0.8357E+01
  -0.785  0.5429E+00  0.8362E+01
  -0.775  0.5300E+00  0.8368E+01
  -0.765  0.5183E+00  0.8373E+01
  -0.755  0.5082E+00  0.8378E+01
  -0.745  0.4989E+00  0.8383E+01
  -0.735  0.4918E+00  0.8388E+01
  -0.725  0.4855E+00  0.8393E+01
  -0.715  0.4793E+00  0.8398E+01
  -0.705  0.4730E+00  0.8402E+01
  -0.695  0.4668E+00  0.8407E+01
  -0.685  0.4605E+00  0.8412E+01
  -0.675  0.4542E+00  0.8416E+01
  -0.665  0.4480E+00  0.8421E+01
  -0.655  0.4425E+00  0.8425E+01
  -0.645  0.4362E+00  0.8430E+01
  -0.635  0.4314E+00  0.8434E+01
  -0.625  0.4273E+00  0.8438E+01
  -0.615  0.4238E+00  0.8443E+01
  -0.605  0.4204E+00  0.8447E+01
  -0.595  0.4171E+00  0.8451E+01
  -0.585  0.4137E+00  0.8455E+01
  -0.575  0.4104E+00  0.8459E+01
  -0.565  0.4070E+00  0.8463E+01
  -0.555  0.4037E+00  0.8467E+01
  -0.545  0.4003E+00  0.8471E+01
  -0.535  0.3974E+00  0.8475E+01
  -0.525  0.3945E+00  0.8479E+01
  -0.515  0.3916E+00  0.8483E+01
  -0.505  0.3888E+00  0.8487E+01
  -0.495  0.3859E+00  0.8491E+01
  -0.485  0.3833E+00  0.8495E+01
  -0.475  0.3807E+00  0.8499E+01
  -0.465  0.3784E+00  0.8502E+01
  -0.455  0.3761E+00  0.8506E+01
  -0.445  0.3739E+00  0.8510E+01
  -0.435  0.3717E+00  0.8514E+01
  -0.425  0.3695E+00  0.8517E+01
  -0.415  0.3673E+00  0.8521E+01
  -0.405  0.3653E+00  0.8525E+01
  -0.395  0.3632E+00  0.8528E+01
  -0.385  0.3612E+00  0.8532E+01
  -0.375  0.3591E+00  0.8536E+01
  -0.365  0.3571E+00  0.8539E+01
  -0.355  0.3550E+00  0.8543E+01
  -0.345  0.3529E+00  0.8546E+01
  -0.335  0.3510E+00  0.8550E+01
  -0.325  0.3491E+00  0.8553E+01
  -0.315  0.3471E+00  0.8557E+01
  -0.305  0.3451E+00  0.8560E+01
  -0.295  0.3431E+00  0.8564E+01
  -0.285  0.3412E+00  0.8567E+01
  -0.275  0.3389E+00  0.8571E+01
  -0.265  0.3376E+00  0.8574E+01
  -0.255  0.3362E+00  0.8577E+01
  -0.245  0.3349E+00  0.8581E+01
  -0.235  0.3336E+00  0.8584E+01
  -0.225  0.3323E+00  0.8587E+01
  -0.215  0.3310E+00  0.8591E+01
  -0.205  0.3296E+00  0.8594E+01
  -0.195  0.3283E+00  0.8597E+01
  -0.185  0.3270E+00  0.8601E+01
  -0.175  0.3257E+00  0.8604E+01
  -0.165  0.3245E+00  0.8607E+01
  -0.155  0.3232E+00  0.8610E+01
  -0.145  0.3220E+00  0.8613E+01
  -0.135  0.3208E+00  0.8617E+01
  -0.125  0.3196E+00  0.8620E+01
  -0.115  0.3184E+00  0.8623E+01
  -0.105  0.3173E+00  0.8626E+01
  -0.095  0.3162E+00  0.8629E+01
  -0.085  0.3151E+00  0.8633E+01
  -0.075  0.3141E+00  0.8636E+01
  -0.065  0.3130E+00  0.8639E+01
  -0.055  0.3119E+00  0.8642E+01
  -0.045  0.3108E+00  0.8645E+01
  -0.035  0.3097E+00  0.8648E+01
  -0.025  0.3087E+00  0.8651E+01
  -0.015  0.3076E+00  0.8654E+01
  -0.005  0.3065E+00  0.8657E+01
   0.005  0.3055E+00  0.8661E+01
   0.015  0.3044E+00  0.8664E+01
   0.025  0.3034E+00  0.8667E+01
   0.035  0.3023E+00  0.8670E+01
   0.045  0.3012E+00  0.8673E+01
   0.055  0.3001E+00  0.8676E+01
   0.065  0.2990E+00  0.8679E+01
   0.075  0.2979E+00  0.8682E+01
   0.085  0.2968E+00  0.8685E+01
   0.095  0.2953E+00  0.8688E+01
   0.105  0.2937E+00  0.8691E+01
   0.115  0.2929E+00  0.8693E+01
   0.125  0.2922E+00  0.8696E+01
   0.135  0.2915E+00  0.8699E+01
   0.145  0.2907E+00  0.8702E+01
   0.155  0.2900E+00  0.8705E+01
   0.165  0.2893E+00  0.8708E+01
   0.175  0.2885E+00  0.8711E+01
   0.185  0.2878E+00  0.8714E+01
   0.195  0.2871E+00  0.8717E+01
   0.205  0.2863E+00  0.8720E+01
   0.215  0.2856E+00  0.8722E+01
   0.225  0.2849E+00  0.8725E+01
   0.235  0.2841E+00  0.8728E+01
   0.245  0.2834E+00  0.8731E+01
   0.255  0.2827E+00  0.8734E+01
   0.265  0.2820E+00  0.8737E+01
   0.275  0.2812E+00  0.8739E+01
   0.285  0.2805E+00  0.8742E+01
   0.295  0.2798E+00  0.8745E+01
   0.305  0.2791E+00  0.8748E+01
   0.315  0.2784E+00  0.8751E+01
   0.325  0.2777E+00  0.8753E+01
   0.335  0.2770E+00  0.8756E+01
   0.345  0.2763E+00  0.8759E+01
   0.355  0.2756E+00  0.8762E+01
   0.365  0.2750E+00  0.8764E+01
   0.375  0.2743E+00  0.8767E+01
   0.385  0.2736E+00  0.8770E+01
   0.395  0.2728E+00  0.8773E+01
   0.405  0.2721E+00  0.8775E+01
   0.415  0.2714E+00  0.8778E+01
   0.425  0.2707E+00  0.8781E+01
   0.435  0.2700E+00  0.8783E+01
   0.445  0.2693E+00  0.8786E+01
   0.455  0.2685E+00  0.8789E+01
   0.465  0.2676E+00  0.8792E+01
   0.475  0.2668E+00  0.8794E+01
   0.485  0.2659E+00  0.8797E+01
   0.495  0.2645E+00  0.8800E+01
   0.505  0.2639E+00  0.8802E+01
   0.515  0.2634E+00  0.8805E+01
   0.525  0.2629E+00  0.8807E+01
   0.535  0.2624E+00  0.8810E+01
   0.545  0.2619E+00  0.8813E+01
   0.555  0.2614E+00  0.8815E+01
   0.565  0.2609E+00  0.8818E+01
   0.575  0.2604E+00  0.8821E+01
   0.585  0.2599E+00  0.8823E+01
   0.595  0.2594E+00  0.8826E+01
   0.605  0.2588E+00  0.8828E+01
   0.615  0.2583E+00  0.8831E+01
   0.625  0.2578E+00  0.8833E+01
   0.635  0.2573E+00  0.8836E+01
   0.645  0.2568E+00  0.8839E+01
   0.655  0.2563E+00  0.8841E+01
   0.665  0.2558E+00  0.8844E+01
   0.675  0.2553E+00  0.8846E+01
   0.685  0.2548E+00  0.8849E+01
   0.695  0.2543E+00  0.8851E+01
   0.705  0.2538E+00  0.8854E+01
   0.715  0.2533E+00  0.8856E+01
   0.725  0.2528E+00  0.8859E+01
   0.735  0.2523E+00  0.8862E+01
   0.745  0.2517E+00  0.8864E+01
   0.755  0.2512E+00  0.8867E+01
   0.765  0.2507E+00  0.8869E+01
   0.775  0.2502E+00  0.8872E+01
   0.785  0.2497E+00  0.8874E+01
   0.795  0.2491E+00  0.8877E+01
   0.805  0.2486E+00  0.8879E+01
   0.815  0.3283E+00  0.8882E+01
   0.825  0.6167E+00  0.8886E+01
   0.835  0.4634E+00  0.8891E+01
   0.845  0.4869E+00  0.8896E+01
   0.855  0.4969E+00  0.8901E+01
   0.865  0.4662E+00  0.8906E+01
   0.875  0.4705E+00  0.8910E+01
   0.885  0.4780E+00  0.8915E+01
   0.895  0.4855E+00  0.8920E+01
   0.905  0.4933E+00  0.8925E+01
   0.915  0.4728E+00  0.8929E+01
   0.925  0.4705E+00  0.8934E+01
   0.935  0.4694E+00  0.8939E+01
   0.945  0.4733E+00  0.8944E+01
   0.955  0.4772E+00  0.8948E+01
   0.965  0.4811E+00  0.8953E+01
   0.975  0.4823E+00  0.8958E+01
   0.985  0.4706E+00  0.8963E+01
   0.995  0.4689E+00  0.8967E+01
   1.005  0.4692E+00  0.8972E+01
   1.015  0.4696E+00  0.8977E+01
   1.025  0.4699E+00  0.8981E+01
   1.035  0.4718E+00  0.8986E+01
   1.045  0.4739E+00  0.8991E+01
   1.055  0.4761E+00  0.8996E+01
   1.065  0.4783E+00  0.9000E+01
   1.075  0.4699E+00  0.9005E+01
   1.085  0.4674E+00  0.9010E+01
   1.095  0.4652E+00  0.9015E+01
   1.105  0.4658E+00  0.9019E+01
   1.115  0.4664E+00  0.9024E+01
   1.125  0.4670E+00  0.9028E+01
   1.135  0.4676E+00  0.9033E+01
   1.145  0.4682E+00  0.9038E+01
   1.155  0.4693E+00  0.9043E+01
   1.165  0.4706E+00  0.9047E+01
   1.175  0.4717E+00  0.9052E+01
   1.185  0.4660E+00  0.9057E+01
   1.195  0.4636E+00  0.9061E+01
   1.205  0.4629E+00  0.9066E+01
   1.215  0.4621E+00  0.9071E+01
   1.225  0.4614E+00  0.9075E+01
   1.235  0.4614E+00  0.9080E+01
   1.245  0.4619E+00  0.9084E+01
   1.255  0.4623E+00  0.9089E+01
   1.265  0.4627E+00  0.9094E+01
   1.275  0.4630E+00  0.9098E+01
   1.285  0.4633E+00  0.9103E+01
   1.295  0.4636E+00  0.9108E+01
   1.305  0.4637E+00  0.9112E+01
   1.315  0.4596E+00  0.9117E+01
   1.325  0.4580E+00  0.9121E+01
   1.335  0.4564E+00  0.9126E+01
   1.345  0.4562E+00  0.9130E+01
   1.355  0.4560E+00  0.9135E+01
   1.365  0.4559E+00  0.9140E+01
   1.375  0.4558E+00  0.9144E+01
   1.385  0.4556E+00  0.9149E+01
   1.395  0.4558E+00  0.9153E+01
   1.405  0.4562E+00  0.9158E+01
   1.415  0.4566E+00  0.9162E+01
   1.425  0.4571E+00  0.9167E+01
   1.435  0.4575E+00  0.9172E+01
   1.445  0.4579E+00  0.9176E+01
   1.455  0.4584E+00  0.9181E+01
   1.465  0.4554E+00  0.9185E+01
   1.475  0.6103E+00  0.9190E+01
   1.485  0.6489E+00  0.9197E+01
   1.495  0.6718E+00  0.9204E+01
   1.505  0.6947E+00  0.9211E+01
   1.515  0.6925E+00  0.9218E+01
   1.525  0.6676E+00  0.9225E+01
   1.535  0.6758E+00  0.9231E+01
   1.545  0.6840E+00  0.9238E+01
   1.555  0.6922E+00  0.9245E+01
   1.565  0.6808E+00  0.9252E+01
   1.575  0.6789E+00  0.9259E+01
   1.585  0.6772E+00  0.9265E+01
   1.595  0.6776E+00  0.9272E+01
   1.605  0.8396E+00  0.9280E+01
   1.615  0.8813E+00  0.9289E+01
   1.625  0.9089E+00  0.9298E+01
   1.635  0.9300E+00  0.9307E+01
   1.645  0.9168E+00  0.9316E+01
   1.655  0.8894E+00  0.9325E+01
   1.665  0.8975E+00  0.9334E+01
   1.675  0.9058E+00  0.9343E+01
   1.685  0.9143E+00  0.9352E+01
   1.695  0.9242E+00  0.9362E+01
   1.705  0.9056E+00  0.9371E+01
   1.715  0.9057E+00  0.9380E+01
   1.725  0.9074E+00  0.9389E+01
   1.735  0.9037E+00  0.9398E+01
   1.745  0.9058E+00  0.9407E+01
   1.755  0.9080E+00  0.9416E+01
   1.765  0.9111E+00  0.9425E+01
   1.775  0.9012E+00  0.9434E+01
   1.785  0.9003E+00  0.9443E+01
   1.795  0.9021E+00  0.9452E+01
   1.805  0.9041E+00  0.9461E+01
   1.815  0.9064E+00  0.9470E+01
   1.825  0.9087E+00  0.9479E+01
   1.835  0.9110E+00  0.9488E+01
   1.845  0.9086E+00  0.9497E+01
   1.855  0.9079E+00  0.9507E+01
   1.865  0.9002E+00  0.9516E+01
   1.875  0.8974E+00  0.9525E+01
   1.885  0.8948E+00  0.9534E+01
   1.895  0.8952E+00  0.9542E+01
   1.905  0.8969E+00  0.9551E+01
   1.915  0.8986E+00  0.9560E+01
   1.925  0.9003E+00  0.9569E+01
   1.935  0.9019E+00  0.9578E+01
   1.945  0.9040E+00  0.9587E+01
   1.955  0.9065E+00  0.9597E+01
   1.965  0.9093E+00  0.9606E+01
   1.975  0.9039E+00  0.9615E+01
   1.985  0.8987E+00  0.9624E+01
   1.995  0.8972E+00  0.9633E+01
   2.005  0.8965E+00  0.9642E+01
   2.015  0.8964E+00  0.9651E+01
   2.025  0.8964E+00  0.9660E+01
   2.035  0.8959E+00  0.9669E+01
   2.045  0.8960E+00  0.9677E+01
   2.055  0.8962E+00  0.9686E+01
   2.065  0.8971E+00  0.9695E+01
   2.075  0.8983E+00  0.9704E+01
   2.085  0.8995E+00  0.9713E+01
   2.095  0.9008E+00  0.9722E+01
   2.105  0.9023E+00  0.9731E+01
   2.115  0.8981E+00  0.9740E+01
   2.125  0.8959E+00  0.9749E+01
   2.135  0.8915E+00  0.9758E+01
   2.145  0.8911E+00  0.9767E+01
   2.155  0.8903E+00  0.9776E+01
   2.165  0.8901E+00  0.9785E+01
   2.175  0.8899E+00  0.9794E+01
   2.185  0.8903E+00  0.9803E+01
   2.195  0.8911E+00  0.9812E+01
   2.205  0.8922E+00  0.9821E+01
   2.215  0.8933E+00  0.9830E+01
   2.225  0.8944E+00  0.9838E+01
   2.235  0.8955E+00  0.9847E+01
   2.245  0.8966E+00  0.9856E+01
   2.255  0.8980E+00  0.9865E+01
   2.265  0.8955E+00  0.9874E+01
   2.275  0.8926E+00  0.9883E+01
   2.285  0.8924E+00  0.9892E+01
   2.295  0.8922E+00  0.9901E+01
   2.305  0.8888E+00  0.9910E+01
   2.315  0.8874E+00  0.9919E+01
   2.325  0.8867E+00  0.9928E+01
   2.335  0.8867E+00  0.9937E+01
   2.345  0.8868E+00  0.9946E+01
   2.355  0.8869E+00  0.9954E+01
   2.365  0.8870E+00  0.9963E+01
   2.375  0.8872E+00  0.9972E+01
   2.385  0.8877E+00  0.9981E+01
   2.395  0.8885E+00  0.9990E+01
   2.405  0.8893E+00  0.9999E+01
   2.415  0.8901E+00  0.1001E+02
   2.425  0.8910E+00  0.1002E+02
   2.435  0.8896E+00  0.1003E+02
   2.445  0.8890E+00  0.1003E+02
   2.455  0.8884E+00  0.1004E+02
   2.465  0.8881E+00  0.1005E+02
   2.475  0.8885E+00  0.1006E+02
   2.485  0.8890E+00  0.1007E+02
   2.495  0.8876E+00  0.1008E+02
   2.505  0.8863E+00  0.1009E+02
   2.515  0.8860E+00  0.1010E+02
   2.525  0.8843E+00  0.1011E+02
   2.535  0.8835E+00  0.1011E+02
   2.545  0.8830E+00  0.1012E+02
   2.555  0.8830E+00  0.1013E+02
   2.565  0.8829E+00  0.1014E+02
   2.575  0.8827E+00  0.1015E+02
   2.585  0.8825E+00  0.1016E+02
   2.595  0.8826E+00  0.1017E+02
   2.605  0.8831E+00  0.1018E+02
   2.615  0.9942E+00  0.1019E+02
   2.625  0.1078E+01  0.1020E+02
   2.635  0.1100E+01  0.1021E+02
   2.645  0.1123E+01  0.1022E+02
   2.655  0.1129E+01  0.1023E+02
   2.665  0.1099E+01  0.1024E+02
   2.675  0.1106E+01  0.1025E+02
   2.685  0.1115E+01  0.1026E+02
   2.695  0.1123E+01  0.1027E+02
   2.705  0.1131E+01  0.1029E+02
   2.715  0.1110E+01  0.1030E+02
   2.725  0.1108E+01  0.1031E+02
   2.735  0.1107E+01  0.1032E+02
   2.745  0.1111E+01  0.1033E+02
   2.755  0.1115E+01  0.1034E+02
   2.765  0.1120E+01  0.1035E+02
   2.775  0.1122E+01  0.1036E+02
   2.785  0.1111E+01  0.1037E+02
   2.795  0.1109E+01  0.1039E+02
   2.805  0.1109E+01  0.1040E+02
   2.815  0.1110E+01  0.1041E+02
   2.825  0.1111E+01  0.1042E+02
   2.835  0.1113E+01  0.1043E+02
   2.845  0.1116E+01  0.1044E+02
   2.855  0.1116E+01  0.1045E+02
   2.865  0.1118E+01  0.1046E+02
   2.875  0.1111E+01  0.1047E+02
   2.885  0.1109E+01  0.1049E+02
   2.895  0.1107E+01  0.1050E+02
   2.905  0.1108E+01  0.1051E+02
   2.915  0.1109E+01  0.1052E+02
   2.925  0.1111E+01  0.1053E+02
   2.935  0.1113E+01  0.1054E+02
   2.945  0.1114E+01  0.1055E+02
   2.955  0.1116E+01  0.1056E+02
   2.965  0.1118E+01  0.1057E+02
   2.975  0.1121E+01  0.1059E+02
   2.985  0.1117E+01  0.1060E+02
   2.995  0.1116E+01  0.1061E+02
   3.005  0.1117E+01  0.1062E+02
   3.015  0.1118E+01  0.1063E+02
   3.025  0.1121E+01  0.1064E+02
   3.035  0.1122E+01  0.1065E+02
   3.045  0.1124E+01  0.1066E+02
   3.055  0.1128E+01  0.1068E+02
   3.065  0.1134E+01  0.1069E+02
   3.075  0.1139E+01  0.1070E+02
   3.085  0.1146E+01  0.1071E+02
   3.095  0.1153E+01  0.1072E+02
   3.105  0.1161E+01  0.1073E+02
   3.115  0.1168E+01  0.1074E+02
   3.125  0.1205E+01  0.1076E+02
   3.135  0.1246E+01  0.1077E+02
   3.145  0.1288E+01  0.1078E+02
   3.155  0.1304E+01  0.1079E+02
   3.165  0.1315E+01  0.1081E+02
   3.175  0.1332E+01  0.1082E+02
   3.185  0.1342E+01  0.1083E+02
   3.195  0.1342E+01  0.1085E+02
   3.205  0.1343E+01  0.1086E+02
   3.215  0.1345E+01  0.1087E+02
   3.225  0.1256E+01  0.1089E+02
   3.235  0.1123E+01  0.1090E+02
   3.245  0.1058E+01  0.1091E+02
   3.255  0.1017E+01  0.1092E+02
   3.265  0.9793E+00  0.1093E+02
   3.275  0.9578E+00  0.1094E+02
   3.285  0.9391E+00  0.1095E+02
   3.295  0.9203E+00  0.1096E+02
   3.305  0.9016E+00  0.1097E+02
   3.315  0.8830E+00  0.1098E+02
   3.325  0.8649E+00  0.1099E+02
   3.335  0.8468E+00  0.1099E+02
   3.345  0.8287E+00  0.1100E+02
   3.355  0.8183E+00  0.1101E+02
   3.365  0.8063E+00  0.1102E+02
   3.375  0.8068E+00  0.1103E+02
   3.385  0.8090E+00  0.1103E+02
   3.395  0.7686E+00  0.1104E+02
   3.405  0.7607E+00  0.1105E+02
   3.415  0.7762E+00  0.1106E+02
   3.425  0.7922E+00  0.1107E+02
   3.435  0.9725E+00  0.1107E+02
   3.445  0.1079E+01  0.1108E+02
   3.455  0.1158E+01  0.1110E+02
   3.465  0.1224E+01  0.1111E+02
   3.475  0.1280E+01  0.1112E+02
   3.485  0.1304E+01  0.1113E+02
   3.495  0.1324E+01  0.1115E+02
   3.505  0.1344E+01  0.1116E+02
   3.515  0.1394E+01  0.1117E+02
   3.525  0.1446E+01  0.1119E+02
   3.535  0.1498E+01  0.1120E+02
   3.545  0.1551E+01  0.1122E+02
   3.555  0.1607E+01  0.1123E+02
   3.565  0.1669E+01  0.1125E+02
   3.575  0.1638E+01  0.1127E+02
   3.585  0.1519E+01  0.1128E+02
   3.595  0.1400E+01  0.1130E+02
   3.605  0.1302E+01  0.1131E+02
   3.615  0.1213E+01  0.1132E+02
   3.625  0.1120E+01  0.1133E+02
   3.635  0.1030E+01  0.1135E+02
   3.645  0.9802E+00  0.1136E+02
   3.655  0.9689E+00  0.1137E+02
   3.665  0.9577E+00  0.1137E+02
   3.675  0.9468E+00  0.1138E+02
   3.685  0.9362E+00  0.1139E+02
   3.695  0.9267E+00  0.1140E+02
   3.705  0.9185E+00  0.1141E+02
   3.715  0.9104E+00  0.1142E+02
   3.725  0.8965E+00  0.1143E+02
   3.735  0.8870E+00  0.1144E+02
   3.745  0.8768E+00  0.1145E+02
   3.755  0.8685E+00  0.1146E+02
   3.765  0.7663E+00  0.1146E+02
   3.775  0.7710E+00  0.1147E+02
   3.785  0.7757E+00  0.1148E+02
   3.795  0.7804E+00  0.1149E+02
   3.805  0.7852E+00  0.1150E+02
   3.815  0.7900E+00  0.1150E+02
   3.825  0.7948E+00  0.1151E+02
   3.835  0.7993E+00  0.1152E+02
   3.845  0.8017E+00  0.1153E+02
   3.855  0.8049E+00  0.1154E+02
   3.865  0.8066E+00  0.1154E+02
   3.875  0.8061E+00  0.1155E+02
   3.885  0.8078E+00  0.1156E+02
   3.895  0.8163E+00  0.1157E+02
   3.905  0.8123E+00  0.1158E+02
   3.915  0.8443E+00  0.1158E+02
   3.925  0.8718E+00  0.1159E+02
   3.935  0.8993E+00  0.1160E+02
   3.945  0.9229E+00  0.1161E+02
   3.955  0.1034E+01  0.1162E+02
   3.965  0.1080E+01  0.1163E+02
   3.975  0.1127E+01  0.1164E+02
   3.985  0.1173E+01  0.1165E+02
   3.995  0.1220E+01  0.1167E+02
   4.005  0.1274E+01  0.1168E+02
   4.015  0.1328E+01  0.1169E+02
   4.025  0.1376E+01  0.1170E+02
   4.035  0.1391E+01  0.1172E+02
   4.045  0.1407E+01  0.1173E+02
   4.055  0.1422E+01  0.1175E+02
   4.065  0.1439E+01  0.1176E+02
   4.075  0.1440E+01  0.1178E+02
   4.085  0.1343E+01  0.1179E+02
   4.095  0.1234E+01  0.1180E+02
   4.105  0.1216E+01  0.1181E+02
   4.115  0.1210E+01  0.1183E+02
   4.125  0.1203E+01  0.1184E+02
   4.135  0.1198E+01  0.1185E+02
   4.145  0.1194E+01  0.1186E+02
   4.155  0.1190E+01  0.1187E+02
   4.165  0.1186E+01  0.1189E+02
   4.175  0.1182E+01  0.1190E+02
   4.185  0.1178E+01  0.1191E+02
   4.195  0.1179E+01  0.1192E+02
   4.205  0.1181E+01  0.1193E+02
   4.215  0.1183E+01  0.1195E+02
   4.225  0.1197E+01  0.1196E+02
   4.235  0.1248E+01  0.1197E+02
   4.245  0.1562E+01  0.1198E+02
   4.255  0.1767E+01  0.1200E+02
   4.265  0.1918E+01  0.1202E+02
   4.275  0.1996E+01  0.1204E+02
   4.285  0.2038E+01  0.1206E+02
   4.295  0.1875E+01  0.1208E+02
   4.305  0.1930E+01  0.1210E+02
   4.315  0.2083E+01  0.1212E+02
   4.325  0.3555E+01  0.1214E+02
   4.335  0.1693E+01  0.1216E+02
   4.345  0.1525E+01  0.1217E+02
   4.355  0.1437E+01  0.1219E+02
   4.365  0.1412E+01  0.1220E+02
   4.375  0.1380E+01  0.1222E+02
   4.385  0.1284E+01  0.1223E+02
   4.395  0.1281E+01  0.1224E+02
   4.405  0.1295E+01  0.1226E+02
   4.415  0.1310E+01  0.1227E+02
   4.425  0.1309E+01  0.1228E+02
   4.435  0.1337E+01  0.1230E+02
   4.445  0.1371E+01  0.1231E+02
   4.455  0.1408E+01  0.1232E+02
   4.465  0.1445E+01  0.1234E+02
   4.475  0.1392E+01  0.1235E+02
   4.485  0.1286E+01  0.1237E+02
   4.495  0.1181E+01  0.1238E+02
   4.505  0.1132E+01  0.1239E+02
   4.515  0.1127E+01  0.1240E+02
   4.525  0.1121E+01  0.1241E+02
   4.535  0.1117E+01  0.1242E+02
   4.545  0.1120E+01  0.1243E+02
   4.555  0.1122E+01  0.1245E+02
   4.565  0.1125E+01  0.1246E+02
   4.575  0.1129E+01  0.1247E+02
   4.585  0.1134E+01  0.1248E+02
   4.595  0.1140E+01  0.1249E+02
   4.605  0.1145E+01  0.1250E+02
   4.615  0.1149E+01  0.1251E+02
   4.625  0.1210E+01  0.1253E+02
   4.635  0.1271E+01  0.1254E+02
   4.645  0.1280E+01  0.1255E+02
   4.655  0.1242E+01  0.1256E+02
   4.665  0.1208E+01  0.1258E+02
   4.675  0.1174E+01  0.1259E+02
   4.685  0.1150E+01  0.1260E+02
   4.695  0.1133E+01  0.1261E+02
   4.705  0.1116E+01  0.1262E+02
   4.715  0.1100E+01  0.1263E+02
   4.725  0.1085E+01  0.1264E+02
   4.735  0.1075E+01  0.1265E+02
   4.745  0.1065E+01  0.1266E+02
   4.755  0.1055E+01  0.1268E+02
   4.765  0.1045E+01  0.1269E+02
   4.775  0.1035E+01  0.1270E+02
   4.785  0.1027E+01  0.1271E+02
   4.795  0.1020E+01  0.1272E+02
   4.805  0.1015E+01  0.1273E+02
   4.815  0.1009E+01  0.1274E+02
   4.825  0.1004E+01  0.1275E+02
   4.835  0.9975E+00  0.1276E+02
   4.845  0.9925E+00  0.1277E+02
   4.855  0.9875E+00  0.1278E+02
   4.865  0.9826E+00  0.1279E+02
   4.875  0.9777E+00  0.1280E+02
   4.885  0.9729E+00  0.1281E+02
   4.895  0.9681E+00  0.1282E+02
   4.905  0.9632E+00  0.1283E+02
   4.915  0.9584E+00  0.1284E+02
   4.925  0.9536E+00  0.1285E+02
   4.935  0.9481E+00  0.1285E+02
   4.945  0.9362E+00  0.1286E+02
   4.955  0.9286E+00  0.1287E+02
   4.965  0.9219E+00  0.1288E+02
   4.975  0.9173E+00  0.1289E+02
   4.985  0.9127E+00  0.1290E+02
   4.995  0.9093E+00  0.1291E+02
   5.005  0.9063E+00  0.1292E+02
   5.015  0.9032E+00  0.1293E+02
   5.025  0.9002E+00  0.1294E+02
   5.035  0.8974E+00  0.1295E+02
   5.045  0.8946E+00  0.1296E+02
   5.055  0.8915E+00  0.1296E+02
   5.065  0.8883E+00  0.1297E+02
   5.075  0.8848E+00  0.1298E+02
   5.085  0.8809E+00  0.1299E+02
   5.095  0.8770E+00  0.1300E+02
   5.105  0.8737E+00  0.1301E+02
   5.115  0.8715E+00  0.1302E+02
   5.125  0.8688E+00  0.1303E+02
   5.135  0.8664E+00  0.1303E+02
   5.145  0.8641E+00  0.1304E+02
   5.155  0.8623E+00  0.1305E+02
   5.165  0.8604E+00  0.1306E+02
   5.175  0.8586E+00  0.1307E+02
   5.185  0.8568E+00  0.1308E+02
   5.195  0.8551E+00  0.1309E+02
   5.205  0.8533E+00  0.1309E+02
   5.215  0.8518E+00  0.1310E+02
   5.225  0.8502E+00  0.1311E+02
   5.235  0.8485E+00  0.1312E+02
   5.245  0.8465E+00  0.1313E+02
   5.255  0.8441E+00  0.1314E+02
   5.265  0.8426E+00  0.1315E+02
   5.275  0.8413E+00  0.1315E+02
   5.285  0.8399E+00  0.1316E+02
   5.295  0.8385E+00  0.1317E+02
   5.305  0.8372E+00  0.1318E+02
   5.315  0.8300E+00  0.1319E+02
   5.325  0.8264E+00  0.1320E+02
   5.335  0.8231E+00  0.1320E+02
   5.345  0.8203E+00  0.1321E+02
   5.355  0.8178E+00  0.1322E+02
   5.365  0.8153E+00  0.1323E+02
   5.375  0.8129E+00  0.1324E+02
   5.385  0.8106E+00  0.1324E+02
   5.395  0.8084E+00  0.1325E+02
   5.405  0.8062E+00  0.1326E+02
   5.415  0.8041E+00  0.1327E+02
   5.425  0.8019E+00  0.1328E+02
   5.435  0.7996E+00  0.1328E+02
   5.445  0.7979E+00  0.1329E+02
   5.455  0.7964E+00  0.1330E+02
   5.465  0.7949E+00  0.1331E+02
   5.475  0.7934E+00  0.1332E+02
   5.485  0.7918E+00  0.1332E+02
   5.495  0.7910E+00  0.1333E+02
   5.505  0.7903E+00  0.1334E+02
   5.515  0.7893E+00  0.1335E+02
   5.525  0.7885E+00  0.1336E+02
   5.535  0.7878E+00  0.1336E+02
   5.545  0.7870E+00  0.1337E+02
   5.555  0.7866E+00  0.1338E+02
   5.565  0.7853E+00  0.1339E+02
   5.575  0.7840E+00  0.1340E+02
   5.585  0.7827E+00  0.1340E+02
   5.595  0.7814E+00  0.1341E+02
   5.605  0.7801E+00  0.1342E+02
   5.615  0.7788E+00  0.1343E+02
   5.625  0.7775E+00  0.1343E+02
   5.635  0.7762E+00  0.1344E+02
   5.645  0.7750E+00  0.1345E+02
   5.655  0.7737E+00  0.1346E+02
   5.665  0.7720E+00  0.1347E+02
   5.675  0.7706E+00  0.1347E+02
   5.685  0.7695E+00  0.1348E+02
   5.695  0.7685E+00  0.1349E+02
   5.705  0.7675E+00  0.1350E+02
   5.715  0.7659E+00  0.1350E+02
   5.725  0.7646E+00  0.1351E+02
   5.735  0.7611E+00  0.1352E+02
   5.745  0.7591E+00  0.1353E+02
   5.755  0.7573E+00  0.1353E+02
   5.765  0.7558E+00  0.1354E+02
   5.775  0.7544E+00  0.1355E+02
   5.785  0.7531E+00  0.1356E+02
   5.795  0.7519E+00  0.1356E+02
   5.805  0.7508E+00  0.1357E+02
   5.815  0.7495E+00  0.1358E+02
   5.825  0.7480E+00  0.1359E+02
   5.835  0.7463E+00  0.1359E+02
   5.845  0.7444E+00  0.1360E+02
   5.855  0.7426E+00  0.1361E+02
   5.865  0.7420E+00  0.1362E+02
   5.875  0.7420E+00  0.1362E+02
   5.885  0.7419E+00  0.1363E+02
   5.895  0.7418E+00  0.1364E+02
   5.905  0.7418E+00  0.1365E+02
   5.915  0.7414E+00  0.1365E+02
   5.925  0.7411E+00  0.1366E+02
   5.935  0.7408E+00  0.1367E+02
   5.945  0.7405E+00  0.1368E+02
   5.955  0.7390E+00  0.1368E+02
   5.965  0.7374E+00  0.1369E+02
   5.975  0.7359E+00  0.1370E+02
   5.985  0.7344E+00  0.1371E+02
   5.995  0.7328E+00  0.1371E+02
   6.005  0.7313E+00  0.1372E+02
   6.015  0.7298E+00  0.1373E+02
   6.025  0.7283E+00  0.1374E+02
   6.035  0.7269E+00  0.1374E+02
   6.045  0.7259E+00  0.1375E+02
   6.055  0.7250E+00  0.1376E+02
   6.065  0.7241E+00  0.1376E+02
   6.075  0.7231E+00  0.1377E+02
   6.085  0.7225E+00  0.1378E+02
   6.095  0.7223E+00  0.1379E+02
   6.105  0.7217E+00  0.1379E+02
   6.115  0.7213E+00  0.1380E+02
   6.125  0.7208E+00  0.1381E+02
   6.135  0.7199E+00  0.1381E+02
   6.145  0.7193E+00  0.1382E+02
   6.155  0.7187E+00  0.1383E+02
   6.165  0.7182E+00  0.1384E+02
   6.175  0.7177E+00  0.1384E+02
   6.185  0.7173E+00  0.1385E+02
   6.195  0.7168E+00  0.1386E+02
   6.205  0.7156E+00  0.1386E+02
   6.215  0.7141E+00  0.1387E+02
   6.225  0.7131E+00  0.1388E+02
   6.235  0.7122E+00  0.1389E+02
   6.245  0.7115E+00  0.1389E+02
   6.255  0.7097E+00  0.1390E+02
   6.265  0.7073E+00  0.1391E+02
   6.275  0.7072E+00  0.1391E+02
   6.285  0.7071E+00  0.1392E+02
   6.295  0.7069E+00  0.1393E+02
   6.305  0.7067E+00  0.1394E+02
   6.315  0.7064E+00  0.1394E+02
   6.325  0.7063E+00  0.1395E+02
   6.335  0.7061E+00  0.1396E+02
   6.345  0.7059E+00  0.1396E+02
   6.355  0.7056E+00  0.1397E+02
   6.365  0.7054E+00  0.1398E+02
   6.375  0.7052E+00  0.1399E+02
   6.385  0.7050E+00  0.1399E+02
   6.395  0.7028E+00  0.1400E+02
   6.405  0.7003E+00  0.1401E+02
   6.415  0.6977E+00  0.1401E+02
   6.425  0.6952E+00  0.1402E+02
   6.435  0.6930E+00  0.1403E+02
   6.445  0.6916E+00  0.1403E+02
   6.455  0.6908E+00  0.1404E+02
   6.465  0.6906E+00  0.1405E+02
   6.475  0.6903E+00  0.1405E+02
   6.485  0.6901E+00  0.1406E+02
   6.495  0.6898E+00  0.1407E+02
   6.505  0.6896E+00  0.1408E+02
   6.515  0.6893E+00  0.1408E+02
   6.525  0.6890E+00  0.1409E+02
   6.535  0.6887E+00  0.1410E+02
   6.545  0.6884E+00  0.1410E+02
   6.555  0.6882E+00  0.1411E+02
   6.565  0.6878E+00  0.1412E+02
   6.575  0.6871E+00  0.1412E+02
   6.585  0.6866E+00  0.1413E+02
   6.595  0.6862E+00  0.1414E+02
   6.605  0.6858E+00  0.1414E+02
   6.615  0.6855E+00  0.1415E+02
   6.625  0.6852E+00  0.1416E+02
   6.635  0.6849E+00  0.1417E+02
   6.645  0.6847E+00  0.1417E+02
   6.655  0.6844E+00  0.1418E+02
   6.665  0.6841E+00  0.1419E+02
   6.675  0.6837E+00  0.1419E+02
   6.685  0.6831E+00  0.1420E+02
   6.695  0.6823E+00  0.1421E+02
   6.705  0.6815E+00  0.1421E+02
   6.715  0.6811E+00  0.1422E+02
   6.725  0.6803E+00  0.1423E+02
   6.735  0.6799E+00  0.1423E+02
   6.745  0.6802E+00  0.1424E+02
   6.755  0.6802E+00  0.1425E+02
   6.765  0.6801E+00  0.1425E+02
   6.775  0.6799E+00  0.1426E+02
   6.785  0.6797E+00  0.1427E+02
   6.795  0.6795E+00  0.1427E+02
   6.805  0.6792E+00  0.1428E+02
   6.815  0.6790E+00  0.1429E+02
   6.825  0.6788E+00  0.1429E+02
   6.835  0.6782E+00  0.1430E+02
   6.845  0.6772E+00  0.1431E+02
   6.855  0.6762E+00  0.1431E+02
   6.865  0.6751E+00  0.1432E+02
   6.875  0.6752E+00  0.1433E+02
   6.885  0.6754E+00  0.1434E+02
   6.895  0.6755E+00  0.1434E+02
   6.905  0.6754E+00  0.1435E+02
   6.915  0.6748E+00  0.1436E+02
   6.925  0.6742E+00  0.1436E+02
   6.935  0.6735E+00  0.1437E+02
   6.945  0.6729E+00  0.1438E+02
   6.955  0.6722E+00  0.1438E+02
   6.965  0.6716E+00  0.1439E+02
   6.975  0.6709E+00  0.1440E+02
   6.985  0.6703E+00  0.1440E+02
   6.995  0.6697E+00  0.1441E+02
   7.005  0.6690E+00  0.1442E+02
   7.015  0.6684E+00  0.1442E+02
   7.025  0.6677E+00  0.1443E+02
   7.035  0.6666E+00  0.1444E+02
   7.045  0.6656E+00  0.1444E+02
   7.055  0.6646E+00  0.1445E+02
   7.065  0.6637E+00  0.1446E+02
   7.075  0.6629E+00  0.1446E+02
   7.085  0.6620E+00  0.1447E+02
   7.095  0.6612E+00  0.1448E+02
   7.105  0.6604E+00  0.1448E+02
   7.115  0.6596E+00  0.1449E+02
   7.125  0.6589E+00  0.1450E+02
   7.135  0.6583E+00  0.1450E+02
   7.145  0.6576E+00  0.1451E+02
   7.155  0.6582E+00  0.1452E+02
   7.165  0.6593E+00  0.1452E+02
   7.175  0.6596E+00  0.1453E+02
   7.185  0.6599E+00  0.1453E+02
   7.195  0.6601E+00  0.1454E+02
   7.205  0.6604E+00  0.1455E+02
   7.215  0.6607E+00  0.1455E+02
   7.225  0.6607E+00  0.1456E+02
   7.235  0.6608E+00  0.1457E+02
   7.245  0.6608E+00  0.1457E+02
   7.255  0.6606E+00  0.1458E+02
   7.265  0.6604E+00  0.1459E+02
   7.275  0.6603E+00  0.1459E+02
   7.285  0.6600E+00  0.1460E+02
   7.295  0.6598E+00  0.1461E+02
   7.305  0.6603E+00  0.1461E+02
   7.315  0.6609E+00  0.1462E+02
   7.325  0.6620E+00  0.1463E+02
   7.335  0.6631E+00  0.1463E+02
   7.345  0.6643E+00  0.1464E+02
   7.355  0.6655E+00  0.1465E+02
   7.365  0.6667E+00  0.1465E+02
   7.375  0.6671E+00  0.1466E+02
   7.385  0.6666E+00  0.1467E+02
   7.395  0.6681E+00  0.1467E+02
   7.405  0.6696E+00  0.1468E+02
   7.415  0.6692E+00  0.1469E+02
   7.425  0.6680E+00  0.1469E+02
   7.435  0.6668E+00  0.1470E+02
   7.445  0.6656E+00  0.1471E+02
   7.455  0.6644E+00  0.1471E+02
   7.465  0.6632E+00  0.1472E+02
   7.475  0.6620E+00  0.1473E+02
   7.485  0.6608E+00  0.1473E+02
   7.495  0.6596E+00  0.1474E+02
   7.505  0.6584E+00  0.1475E+02
   7.515  0.6569E+00  0.1475E+02
   7.525  0.6553E+00  0.1476E+02
   7.535  0.6578E+00  0.1477E+02
   7.545  0.6584E+00  0.1477E+02
   7.555  0.6589E+00  0.1478E+02
   7.565  0.6595E+00  0.1479E+02
   7.575  0.6602E+00  0.1479E+02
   7.585  0.6601E+00  0.1480E+02
   7.595  0.6599E+00  0.1481E+02
   7.605  0.6598E+00  0.1481E+02
   7.615  0.6597E+00  0.1482E+02
   7.625  0.6599E+00  0.1483E+02
   7.635  0.6601E+00  0.1483E+02
   7.645  0.6603E+00  0.1484E+02
   7.655  0.6604E+00  0.1485E+02
   7.665  0.6605E+00  0.1485E+02
   7.675  0.6607E+00  0.1486E+02
   7.685  0.6608E+00  0.1487E+02
   7.695  0.6609E+00  0.1487E+02
   7.705  0.6611E+00  0.1488E+02
   7.715  0.6612E+00  0.1489E+02
   7.725  0.6613E+00  0.1489E+02
   7.735  0.6614E+00  0.1490E+02
   7.745  0.6616E+00  0.1491E+02
   7.755  0.6618E+00  0.1491E+02
   7.765  0.6641E+00  0.1492E+02
   7.775  0.6664E+00  0.1493E+02
   7.785  0.6687E+00  0.1493E+02
   7.795  0.6711E+00  0.1494E+02
   7.805  0.6736E+00  0.1495E+02
   7.815  0.6775E+00  0.1495E+02
   7.825  0.6795E+00  0.1496E+02
   7.835  0.6816E+00  0.1497E+02
   7.845  0.6936E+00  0.1497E+02
   7.855  0.7073E+00  0.1498E+02
   7.865  0.7164E+00  0.1499E+02
   7.875  0.7220E+00  0.1499E+02
   7.885  0.7277E+00  0.1500E+02
   7.895  0.7334E+00  0.1501E+02
   7.905  0.7387E+00  0.1502E+02
   7.915  0.7436E+00  0.1502E+02
   7.925  0.7458E+00  0.1503E+02
   7.935  0.7451E+00  0.1504E+02
   7.945  0.7437E+00  0.1505E+02
   7.955  0.7423E+00  0.1505E+02
   7.965  0.7452E+00  0.1506E+02
   7.975  0.1009E+01  0.1507E+02
   7.985  0.1031E+01  0.1508E+02
   7.995  0.1049E+01  0.1509E+02
   8.005  0.1067E+01  0.1510E+02
   8.015  0.1089E+01  0.1511E+02
   8.025  0.1250E+01  0.1512E+02
   8.035  0.1313E+01  0.1514E+02
   8.045  0.1321E+01  0.1515E+02
   8.055  0.1319E+01  0.1516E+02
   8.065  0.1654E+01  0.1518E+02
   8.075  0.1469E+01  0.1519E+02
   8.085  0.1349E+01  0.1521E+02
   8.095  0.1229E+01  0.1522E+02
   8.105  0.1144E+01  0.1523E+02
   8.115  0.1081E+01  0.1524E+02
   8.125  0.9980E+00  0.1525E+02
   8.135  0.9763E+00  0.1526E+02
   8.145  0.9961E+00  0.1527E+02
   8.155  0.9710E+00  0.1528E+02
   8.165  0.9459E+00  0.1529E+02
   8.175  0.9210E+00  0.1530E+02
   8.185  0.9079E+00  0.1531E+02
   8.195  0.9039E+00  0.1532E+02
   8.205  0.8999E+00  0.1533E+02
   8.215  0.9312E+00  0.1534E+02
   8.225  0.9133E+00  0.1535E+02
   8.235  0.8968E+00  0.1536E+02
   8.245  0.8855E+00  0.1537E+02
   8.255  0.8742E+00  0.1537E+02
   8.265  0.8629E+00  0.1538E+02
   8.275  0.8515E+00  0.1539E+02
   8.285  0.8402E+00  0.1540E+02
   8.295  0.8288E+00  0.1541E+02
   8.305  0.8159E+00  0.1542E+02
   8.315  0.8015E+00  0.1542E+02
   8.325  0.7615E+00  0.1543E+02
   8.335  0.7216E+00  0.1544E+02
   8.345  0.6908E+00  0.1545E+02
   8.355  0.6532E+00  0.1545E+02
   8.365  0.7270E+00  0.1546E+02
   8.375  0.7679E+00  0.1547E+02
   8.385  0.7532E+00  0.1548E+02
   8.395  0.7385E+00  0.1548E+02
   8.405  0.7239E+00  0.1549E+02
   8.415  0.7122E+00  0.1550E+02
   8.425  0.7012E+00  0.1550E+02
   8.435  0.6893E+00  0.1551E+02
   8.445  0.6732E+00  0.1552E+02
   8.455  0.6601E+00  0.1553E+02
   8.465  0.6480E+00  0.1553E+02
   8.475  0.6359E+00  0.1554E+02
   8.485  0.6238E+00  0.1554E+02
   8.495  0.6127E+00  0.1555E+02
   8.505  0.6018E+00  0.1556E+02
   8.515  0.5943E+00  0.1556E+02
   8.525  0.5927E+00  0.1557E+02
   8.535  0.5949E+00  0.1557E+02
   8.545  0.5990E+00  0.1558E+02
   8.555  0.6041E+00  0.1559E+02
   8.565  0.6237E+00  0.1559E+02
   8.575  0.7099E+00  0.1560E+02
   8.585  0.7203E+00  0.1561E+02
   8.595  0.7256E+00  0.1561E+02
   8.605  0.7308E+00  0.1562E+02
   8.615  0.7165E+00  0.1563E+02
   8.625  0.6976E+00  0.1564E+02
   8.635  0.6788E+00  0.1564E+02
   8.645  0.6600E+00  0.1565E+02
   8.655  0.6412E+00  0.1566E+02
   8.665  0.6224E+00  0.1566E+02
   8.675  0.6722E+00  0.1567E+02
   8.685  0.6767E+00  0.1568E+02
   8.695  0.6598E+00  0.1568E+02
   8.705  0.6444E+00  0.1569E+02
   8.715  0.6300E+00  0.1569E+02
   8.725  0.6157E+00  0.1570E+02
   8.735  0.6013E+00  0.1571E+02
   8.745  0.5871E+00  0.1571E+02
   8.755  0.5804E+00  0.1572E+02
   8.765  0.5736E+00  0.1572E+02
   8.775  0.5234E+00  0.1573E+02
   8.785  0.5223E+00  0.1574E+02
   8.795  0.5211E+00  0.1574E+02
   8.805  0.5199E+00  0.1575E+02
   8.815  0.5187E+00  0.1575E+02
   8.825  0.5175E+00  0.1576E+02
   8.835  0.5163E+00  0.1576E+02
   8.845  0.5636E+00  0.1577E+02
   8.855  0.5479E+00  0.1577E+02
   8.865  0.5303E+00  0.1578E+02
   8.875  0.5117E+00  0.1578E+02
   8.885  0.4930E+00  0.1579E+02
   8.895  0.4744E+00  0.1579E+02
   8.905  0.2984E+00  0.1580E+02
   8.915  0.2948E+00  0.1580E+02
   8.925  0.2911E+00  0.1581E+02
   8.935  0.2875E+00  0.1581E+02
   8.945  0.2838E+00  0.1581E+02
   8.955  0.2809E+00  0.1581E+02
   8.965  0.2148E+00  0.1582E+02
   8.975  0.2137E+00  0.1582E+02
   8.985  0.2127E+00  0.1582E+02
   8.995  0.2140E+00  0.1582E+02
   9.005  0.2148E+00  0.1582E+02
   9.015  0.2137E+00  0.1583E+02
   9.025  0.2126E+00  0.1583E+02
   9.035  0.2115E+00  0.1583E+02
   9.045  0.2104E+00  0.1583E+02
   9.055  0.2093E+00  0.1584E+02
   9.065  0.2083E+00  0.1584E+02
   9.075  0.2069E+00  0.1584E+02
   9.085  0.2055E+00  0.1584E+02
   9.095  0.2040E+00  0.1584E+02
   9.105  0.2026E+00  0.1585E+02
   9.115  0.2011E+00  0.1585E+02
   9.125  0.1997E+00  0.1585E+02
   9.135  0.1982E+00  0.1585E+02
   9.145  0.2005E+00  0.1585E+02
   9.155  0.2033E+00  0.1586E+02
   9.165  0.2060E+00  0.1586E+02
   9.175  0.1974E+00  0.1586E+02
   9.185  0.1959E+00  0.1586E+02
   9.195  0.1944E+00  0.1587E+02
   9.205  0.1929E+00  0.1587E+02
   9.215  0.1914E+00  0.1587E+02
   9.225  0.1899E+00  0.1587E+02
   9.235  0.1884E+00  0.1587E+02
   9.245  0.1869E+00  0.1588E+02
   9.255  0.1854E+00  0.1588E+02
   9.265  0.1839E+00  0.1588E+02
   9.275  0.1824E+00  0.1588E+02
   9.285  0.1809E+00  0.1588E+02
   9.295  0.1825E+00  0.1588E+02
   9.305  0.1812E+00  0.1589E+02
   9.315  0.1799E+00  0.1589E+02
   9.325  0.1786E+00  0.1589E+02
   9.335  0.1772E+00  0.1589E+02
   9.345  0.1759E+00  0.1589E+02
   9.355  0.1746E+00  0.1590E+02
   9.365  0.1733E+00  0.1590E+02
   9.375  0.1720E+00  0.1590E+02
   9.385  0.1707E+00  0.1590E+02
   9.395  0.1694E+00  0.1590E+02
   9.405  0.1680E+00  0.1590E+02
   9.415  0.1697E+00  0.1591E+02
   9.425  0.1847E+00  0.1591E+02
   9.435  0.1840E+00  0.1591E+02
   9.445  0.1833E+00  0.1591E+02
   9.455  0.1827E+00  0.1591E+02
   9.465  0.1848E+00  0.1592E+02
   9.475  0.1926E+00  0.1592E+02
   9.485  0.2005E+00  0.1592E+02
   9.495  0.2083E+00  0.1592E+02
   9.505  0.2161E+00  0.1592E+02
   9.515  0.2240E+00  0.1593E+02
   9.525  0.2318E+00  0.1593E+02
   9.535  0.1840E+00  0.1593E+02
   9.545  0.1833E+00  0.1593E+02
   9.555  0.1827E+00  0.1593E+02
   9.565  0.1820E+00  0.1594E+02
   9.575  0.1813E+00  0.1594E+02
   9.585  0.1806E+00  0.1594E+02
   9.595  0.1800E+00  0.1594E+02
   9.605  0.1793E+00  0.1594E+02
   9.615  0.1786E+00  0.1594E+02
   9.625  0.1780E+00  0.1595E+02
   9.635  0.1778E+00  0.1595E+02
   9.645  0.1801E+00  0.1595E+02
   9.655  0.1823E+00  0.1595E+02
   9.665  0.1846E+00  0.1595E+02
   9.675  0.1869E+00  0.1595E+02
   9.685  0.1892E+00  0.1596E+02
   9.695  0.1914E+00  0.1596E+02
   9.705  0.1937E+00  0.1596E+02
   9.715  0.1960E+00  0.1596E+02
   9.725  0.2115E+00  0.1596E+02
   9.735  0.2486E+00  0.1597E+02
   9.745  0.2764E+00  0.1597E+02
   9.755  0.2630E+00  0.1597E+02
   9.765  0.2497E+00  0.1597E+02
   9.775  0.2363E+00  0.1598E+02
   9.785  0.2229E+00  0.1598E+02
   9.795  0.2096E+00  0.1598E+02
   9.805  0.1962E+00  0.1598E+02
   9.815  0.1828E+00  0.1599E+02
   9.825  0.1695E+00  0.1599E+02
   9.835  0.1561E+00  0.1599E+02
   9.845  0.1427E+00  0.1599E+02
   9.855  0.1294E+00  0.1599E+02
   9.865  0.1946E+00  0.1600E+02
