# E (eV)   ldos(E)   pdos(E)    pdos(E)    pdos(E)   
 -22.023  0.814E-08  0.463E-20  0.407E-08  0.407E-08
 -22.013  0.136E-07  0.721E-20  0.679E-08  0.679E-08
 -22.003  0.224E-07  0.111E-19  0.112E-07  0.112E-07
 -21.993  0.366E-07  0.169E-19  0.183E-07  0.183E-07
 -21.983  0.591E-07  0.256E-19  0.295E-07  0.295E-07
 -21.973  0.944E-07  0.382E-19  0.472E-07  0.472E-07
 -21.963  0.149E-06  0.566E-19  0.746E-07  0.746E-07
 -21.953  0.233E-06  0.829E-19  0.117E-06  0.117E-06
 -21.943  0.361E-06  0.120E-18  0.180E-06  0.180E-06
 -21.933  0.552E-06  0.173E-18  0.276E-06  0.276E-06
 -21.923  0.836E-06  0.245E-18  0.418E-06  0.418E-06
 -21.913  0.125E-05  0.345E-18  0.626E-06  0.626E-06
 -21.903  0.186E-05  0.481E-18  0.928E-06  0.928E-06
 -21.893  0.272E-05  0.663E-18  0.136E-05  0.136E-05
 -21.883  0.395E-05  0.906E-18  0.197E-05  0.197E-05
 -21.873  0.566E-05  0.123E-17  0.283E-05  0.283E-05
 -21.863  0.804E-05  0.164E-17  0.402E-05  0.402E-05
 -21.853  0.113E-04  0.218E-17  0.565E-05  0.565E-05
 -21.843  0.157E-04  0.286E-17  0.785E-05  0.785E-05
 -21.833  0.216E-04  0.373E-17  0.108E-04  0.108E-04
 -21.823  0.294E-04  0.480E-17  0.147E-04  0.147E-04
 -21.813  0.396E-04  0.613E-17  0.198E-04  0.198E-04
 -21.803  0.528E-04  0.776E-17  0.264E-04  0.264E-04
 -21.793  0.697E-04  0.972E-17  0.348E-04  0.348E-04
 -21.783  0.910E-04  0.121E-16  0.455E-04  0.455E-04
 -21.773  0.118E-03  0.148E-16  0.588E-04  0.588E-04
 -21.763  0.150E-03  0.181E-16  0.752E-04  0.752E-04
 -21.753  0.191E-03  0.218E-16  0.953E-04  0.953E-04
 -21.743  0.239E-03  0.261E-16  0.120E-03  0.120E-03
 -21.733  0.297E-03  0.309E-16  0.149E-03  0.149E-03
 -21.723  0.366E-03  0.363E-16  0.183E-03  0.183E-03
 -21.713  0.446E-03  0.422E-16  0.223E-03  0.223E-03
 -21.703  0.539E-03  0.487E-16  0.270E-03  0.270E-03
 -21.693  0.646E-03  0.556E-16  0.323E-03  0.323E-03
 -21.683  0.767E-03  0.630E-16  0.383E-03  0.383E-03
 -21.673  0.904E-03  0.707E-16  0.452E-03  0.452E-03
 -21.663  0.106E-02  0.787E-16  0.528E-03  0.528E-03
 -21.653  0.123E-02  0.868E-16  0.613E-03  0.613E-03
 -21.643  0.141E-02  0.949E-16  0.706E-03  0.706E-03
 -21.633  0.162E-02  0.103E-15  0.809E-03  0.809E-03
 -21.623  0.184E-02  0.111E-15  0.921E-03  0.921E-03
 -21.613  0.208E-02  0.118E-15  0.104E-02  0.104E-02
 -21.603  0.235E-02  0.125E-15  0.117E-02  0.117E-02
 -21.593  0.263E-02  0.132E-15  0.132E-02  0.132E-02
 -21.583  0.294E-02  0.137E-15  0.147E-02  0.147E-02
 -21.573  0.327E-02  0.143E-15  0.163E-02  0.163E-02
 -21.563  0.362E-02  0.147E-15  0.181E-02  0.181E-02
 -21.553  0.400E-02  0.151E-15  0.200E-02  0.200E-02
 -21.543  0.441E-02  0.155E-15  0.220E-02  0.220E-02
 -21.533  0.484E-02  0.157E-15  0.242E-02  0.242E-02
 -21.523  0.530E-02  0.160E-15  0.265E-02  0.265E-02
 -21.513  0.579E-02  0.162E-15  0.289E-02  0.289E-02
 -21.503  0.630E-02  0.165E-15  0.315E-02  0.315E-02
 -21.493  0.683E-02  0.167E-15  0.342E-02  0.342E-02
 -21.483  0.738E-02  0.169E-15  0.369E-02  0.369E-02
 -21.473  0.793E-02  0.172E-15  0.397E-02  0.397E-02
 -21.463  0.849E-02  0.175E-15  0.425E-02  0.425E-02
 -21.453  0.905E-02  0.178E-15  0.452E-02  0.452E-02
 -21.443  0.959E-02  0.182E-15  0.479E-02  0.479E-02
 -21.433  0.101E-01  0.187E-15  0.505E-02  0.505E-02
 -21.423  0.106E-01  0.192E-15  0.530E-02  0.530E-02
 -21.413  0.110E-01  0.198E-15  0.552E-02  0.552E-02
 -21.403  0.115E-01  0.205E-15  0.573E-02  0.573E-02
 -21.393  0.118E-01  0.212E-15  0.590E-02  0.590E-02
 -21.383  0.121E-01  0.220E-15  0.605E-02  0.605E-02
 -21.373  0.124E-01  0.229E-15  0.618E-02  0.618E-02
 -21.363  0.126E-01  0.239E-15  0.628E-02  0.628E-02
 -21.353  0.127E-01  0.251E-15  0.636E-02  0.636E-02
 -21.343  0.128E-01  0.265E-15  0.642E-02  0.642E-02
 -21.333  0.129E-01  0.281E-15  0.647E-02  0.647E-02
 -21.323  0.131E-01  0.299E-15  0.653E-02  0.653E-02
 -21.313  0.132E-01  0.320E-15  0.659E-02  0.659E-02
 -21.303  0.133E-01  0.345E-15  0.666E-02  0.666E-02
 -21.293  0.135E-01  0.374E-15  0.677E-02  0.677E-02
 -21.283  0.138E-01  0.407E-15  0.690E-02  0.690E-02
 -21.273  0.142E-01  0.444E-15  0.708E-02  0.708E-02
 -21.263  0.146E-01  0.485E-15  0.731E-02  0.731E-02
 -21.253  0.152E-01  0.530E-15  0.758E-02  0.758E-02
 -21.243  0.158E-01  0.579E-15  0.791E-02  0.791E-02
 -21.233  0.166E-01  0.632E-15  0.829E-02  0.829E-02
 -21.223  0.174E-01  0.686E-15  0.872E-02  0.872E-02
 -21.213  0.184E-01  0.741E-15  0.918E-02  0.918E-02
 -21.203  0.193E-01  0.797E-15  0.967E-02  0.967E-02
 -21.193  0.204E-01  0.850E-15  0.102E-01  0.102E-01
 -21.183  0.214E-01  0.901E-15  0.107E-01  0.107E-01
 -21.173  0.224E-01  0.948E-15  0.112E-01  0.112E-01
 -21.163  0.234E-01  0.988E-15  0.117E-01  0.117E-01
 -21.153  0.243E-01  0.102E-14  0.122E-01  0.122E-01
 -21.143  0.251E-01  0.105E-14  0.126E-01  0.126E-01
 -21.133  0.258E-01  0.106E-14  0.129E-01  0.129E-01
 -21.123  0.264E-01  0.107E-14  0.132E-01  0.132E-01
 -21.113  0.268E-01  0.106E-14  0.134E-01  0.134E-01
 -21.103  0.271E-01  0.105E-14  0.136E-01  0.136E-01
 -21.093  0.272E-01  0.103E-14  0.136E-01  0.136E-01
 -21.083  0.272E-01  0.996E-15  0.136E-01  0.136E-01
 -21.073  0.271E-01  0.957E-15  0.135E-01  0.135E-01
 -21.063  0.268E-01  0.911E-15  0.134E-01  0.134E-01
 -21.053  0.264E-01  0.860E-15  0.132E-01  0.132E-01
 -21.043  0.259E-01  0.805E-15  0.130E-01  0.130E-01
 -21.033  0.253E-01  0.748E-15  0.127E-01  0.127E-01
 -21.023  0.247E-01  0.691E-15  0.124E-01  0.124E-01
 -21.013  0.240E-01  0.634E-15  0.120E-01  0.120E-01
 -21.003  0.234E-01  0.580E-15  0.117E-01  0.117E-01
 -20.993  0.227E-01  0.528E-15  0.113E-01  0.113E-01
 -20.983  0.220E-01  0.480E-15  0.110E-01  0.110E-01
 -20.973  0.214E-01  0.437E-15  0.107E-01  0.107E-01
 -20.963  0.209E-01  0.399E-15  0.104E-01  0.104E-01
 -20.953  0.205E-01  0.367E-15  0.102E-01  0.102E-01
 -20.943  0.202E-01  0.340E-15  0.101E-01  0.101E-01
 -20.933  0.201E-01  0.319E-15  0.100E-01  0.100E-01
 -20.923  0.201E-01  0.304E-15  0.101E-01  0.101E-01
 -20.913  0.204E-01  0.295E-15  0.102E-01  0.102E-01
 -20.903  0.209E-01  0.290E-15  0.104E-01  0.104E-01
 -20.893  0.216E-01  0.290E-15  0.108E-01  0.108E-01
 -20.883  0.225E-01  0.294E-15  0.113E-01  0.113E-01
 -20.873  0.237E-01  0.302E-15  0.119E-01  0.119E-01
 -20.863  0.251E-01  0.312E-15  0.126E-01  0.126E-01
 -20.853  0.268E-01  0.325E-15  0.134E-01  0.134E-01
 -20.843  0.286E-01  0.338E-15  0.143E-01  0.143E-01
 -20.833  0.306E-01  0.352E-15  0.153E-01  0.153E-01
 -20.823  0.326E-01  0.366E-15  0.163E-01  0.163E-01
 -20.813  0.347E-01  0.379E-15  0.174E-01  0.174E-01
 -20.803  0.369E-01  0.390E-15  0.184E-01  0.184E-01
 -20.793  0.389E-01  0.399E-15  0.195E-01  0.195E-01
 -20.783  0.409E-01  0.406E-15  0.204E-01  0.204E-01
 -20.773  0.426E-01  0.409E-15  0.213E-01  0.213E-01
 -20.763  0.441E-01  0.410E-15  0.221E-01  0.221E-01
 -20.753  0.454E-01  0.407E-15  0.227E-01  0.227E-01
 -20.743  0.463E-01  0.402E-15  0.231E-01  0.231E-01
 -20.733  0.469E-01  0.393E-15  0.234E-01  0.234E-01
 -20.723  0.471E-01  0.383E-15  0.236E-01  0.236E-01
 -20.713  0.470E-01  0.370E-15  0.235E-01  0.235E-01
 -20.703  0.465E-01  0.356E-15  0.233E-01  0.233E-01
 -20.693  0.457E-01  0.341E-15  0.229E-01  0.229E-01
 -20.683  0.446E-01  0.327E-15  0.223E-01  0.223E-01
 -20.673  0.433E-01  0.312E-15  0.217E-01  0.217E-01
 -20.663  0.418E-01  0.299E-15  0.209E-01  0.209E-01
 -20.653  0.402E-01  0.288E-15  0.201E-01  0.201E-01
 -20.643  0.385E-01  0.278E-15  0.192E-01  0.192E-01
 -20.633  0.368E-01  0.271E-15  0.184E-01  0.184E-01
 -20.623  0.351E-01  0.266E-15  0.176E-01  0.176E-01
 -20.613  0.335E-01  0.264E-15  0.168E-01  0.168E-01
 -20.603  0.320E-01  0.265E-15  0.160E-01  0.160E-01
 -20.593  0.307E-01  0.268E-15  0.153E-01  0.153E-01
 -20.583  0.295E-01  0.274E-15  0.148E-01  0.148E-01
 -20.573  0.285E-01  0.282E-15  0.143E-01  0.143E-01
 -20.563  0.277E-01  0.292E-15  0.139E-01  0.139E-01
 -20.553  0.271E-01  0.304E-15  0.135E-01  0.135E-01
 -20.543  0.266E-01  0.317E-15  0.133E-01  0.133E-01
 -20.533  0.262E-01  0.332E-15  0.131E-01  0.131E-01
 -20.523  0.260E-01  0.349E-15  0.130E-01  0.130E-01
 -20.513  0.259E-01  0.367E-15  0.130E-01  0.130E-01
 -20.503  0.260E-01  0.386E-15  0.130E-01  0.130E-01
 -20.493  0.261E-01  0.408E-15  0.131E-01  0.131E-01
 -20.483  0.264E-01  0.432E-15  0.132E-01  0.132E-01
 -20.473  0.267E-01  0.458E-15  0.134E-01  0.134E-01
 -20.463  0.272E-01  0.487E-15  0.136E-01  0.136E-01
 -20.453  0.279E-01  0.520E-15  0.139E-01  0.139E-01
 -20.443  0.287E-01  0.556E-15  0.143E-01  0.143E-01
 -20.433  0.297E-01  0.596E-15  0.148E-01  0.148E-01
 -20.423  0.308E-01  0.640E-15  0.154E-01  0.154E-01
 -20.413  0.322E-01  0.687E-15  0.161E-01  0.161E-01
 -20.403  0.337E-01  0.737E-15  0.169E-01  0.169E-01
 -20.393  0.355E-01  0.790E-15  0.177E-01  0.177E-01
 -20.383  0.374E-01  0.844E-15  0.187E-01  0.187E-01
 -20.373  0.395E-01  0.898E-15  0.198E-01  0.198E-01
 -20.363  0.417E-01  0.951E-15  0.209E-01  0.209E-01
 -20.353  0.441E-01  0.100E-14  0.220E-01  0.220E-01
 -20.343  0.464E-01  0.105E-14  0.232E-01  0.232E-01
 -20.333  0.488E-01  0.109E-14  0.244E-01  0.244E-01
 -20.323  0.512E-01  0.112E-14  0.256E-01  0.256E-01
 -20.313  0.535E-01  0.114E-14  0.268E-01  0.268E-01
 -20.303  0.557E-01  0.116E-14  0.279E-01  0.279E-01
 -20.293  0.578E-01  0.116E-14  0.289E-01  0.289E-01
 -20.283  0.596E-01  0.115E-14  0.298E-01  0.298E-01
 -20.273  0.613E-01  0.113E-14  0.306E-01  0.306E-01
 -20.263  0.627E-01  0.110E-14  0.313E-01  0.313E-01
 -20.253  0.639E-01  0.106E-14  0.319E-01  0.319E-01
 -20.243  0.647E-01  0.101E-14  0.324E-01  0.324E-01
 -20.233  0.653E-01  0.957E-15  0.327E-01  0.327E-01
 -20.223  0.656E-01  0.894E-15  0.328E-01  0.328E-01
 -20.213  0.656E-01  0.826E-15  0.328E-01  0.328E-01
 -20.203  0.652E-01  0.756E-15  0.326E-01  0.326E-01
 -20.193  0.645E-01  0.684E-15  0.323E-01  0.323E-01
 -20.183  0.635E-01  0.612E-15  0.318E-01  0.318E-01
 -20.173  0.622E-01  0.542E-15  0.311E-01  0.311E-01
 -20.163  0.606E-01  0.475E-15  0.303E-01  0.303E-01
 -20.153  0.587E-01  0.412E-15  0.294E-01  0.294E-01
 -20.143  0.565E-01  0.354E-15  0.283E-01  0.283E-01
 -20.133  0.541E-01  0.300E-15  0.271E-01  0.271E-01
 -20.123  0.515E-01  0.252E-15  0.258E-01  0.258E-01
 -20.113  0.488E-01  0.209E-15  0.244E-01  0.244E-01
 -20.103  0.459E-01  0.172E-15  0.229E-01  0.229E-01
 -20.093  0.430E-01  0.140E-15  0.215E-01  0.215E-01
 -20.083  0.401E-01  0.113E-15  0.200E-01  0.200E-01
 -20.073  0.373E-01  0.898E-16  0.186E-01  0.186E-01
 -20.063  0.346E-01  0.708E-16  0.173E-01  0.173E-01
 -20.053  0.322E-01  0.552E-16  0.161E-01  0.161E-01
 -20.043  0.299E-01  0.427E-16  0.150E-01  0.150E-01
 -20.033  0.280E-01  0.327E-16  0.140E-01  0.140E-01
 -20.023  0.264E-01  0.249E-16  0.132E-01  0.132E-01
 -20.013  0.252E-01  0.188E-16  0.126E-01  0.126E-01
 -20.003  0.243E-01  0.141E-16  0.122E-01  0.122E-01
 -19.993  0.238E-01  0.106E-16  0.119E-01  0.119E-01
 -19.983  0.237E-01  0.802E-17  0.118E-01  0.118E-01
 -19.973  0.239E-01  0.611E-17  0.119E-01  0.119E-01
 -19.963  0.244E-01  0.474E-17  0.122E-01  0.122E-01
 -19.953  0.253E-01  0.378E-17  0.126E-01  0.126E-01
 -19.943  0.264E-01  0.311E-17  0.132E-01  0.132E-01
 -19.933  0.278E-01  0.267E-17  0.139E-01  0.139E-01
 -19.923  0.293E-01  0.238E-17  0.147E-01  0.147E-01
 -19.913  0.311E-01  0.220E-17  0.155E-01  0.155E-01
 -19.903  0.330E-01  0.209E-17  0.165E-01  0.165E-01
 -19.893  0.350E-01  0.203E-17  0.175E-01  0.175E-01
 -19.883  0.371E-01  0.200E-17  0.186E-01  0.186E-01
 -19.873  0.394E-01  0.197E-17  0.197E-01  0.197E-01
 -19.863  0.417E-01  0.196E-17  0.209E-01  0.209E-01
 -19.853  0.442E-01  0.195E-17  0.221E-01  0.221E-01
 -19.843  0.467E-01  0.193E-17  0.233E-01  0.233E-01
 -19.833  0.493E-01  0.191E-17  0.246E-01  0.246E-01
 -19.823  0.520E-01  0.188E-17  0.260E-01  0.260E-01
 -19.813  0.547E-01  0.185E-17  0.273E-01  0.273E-01
 -19.803  0.575E-01  0.181E-17  0.287E-01  0.287E-01
 -19.793  0.602E-01  0.178E-17  0.301E-01  0.301E-01
 -19.783  0.630E-01  0.174E-17  0.315E-01  0.315E-01
 -19.773  0.656E-01  0.171E-17  0.328E-01  0.328E-01
 -19.763  0.682E-01  0.168E-17  0.341E-01  0.341E-01
 -19.753  0.705E-01  0.165E-17  0.353E-01  0.353E-01
 -19.743  0.726E-01  0.162E-17  0.363E-01  0.363E-01
 -19.733  0.745E-01  0.159E-17  0.372E-01  0.372E-01
 -19.723  0.759E-01  0.157E-17  0.380E-01  0.380E-01
 -19.713  0.770E-01  0.156E-17  0.385E-01  0.385E-01
 -19.703  0.778E-01  0.154E-17  0.389E-01  0.389E-01
 -19.693  0.780E-01  0.153E-17  0.390E-01  0.390E-01
 -19.683  0.779E-01  0.151E-17  0.390E-01  0.390E-01
 -19.673  0.774E-01  0.150E-17  0.387E-01  0.387E-01
 -19.663  0.765E-01  0.150E-17  0.383E-01  0.383E-01
 -19.653  0.754E-01  0.149E-17  0.377E-01  0.377E-01
 -19.643  0.740E-01  0.149E-17  0.370E-01  0.370E-01
 -19.633  0.724E-01  0.149E-17  0.362E-01  0.362E-01
 -19.623  0.708E-01  0.150E-17  0.354E-01  0.354E-01
 -19.613  0.692E-01  0.151E-17  0.346E-01  0.346E-01
 -19.603  0.676E-01  0.152E-17  0.338E-01  0.338E-01
 -19.593  0.662E-01  0.155E-17  0.331E-01  0.331E-01
 -19.583  0.649E-01  0.157E-17  0.325E-01  0.325E-01
 -19.573  0.639E-01  0.161E-17  0.319E-01  0.319E-01
 -19.563  0.630E-01  0.165E-17  0.315E-01  0.315E-01
 -19.553  0.624E-01  0.169E-17  0.312E-01  0.312E-01
 -19.543  0.620E-01  0.173E-17  0.310E-01  0.310E-01
 -19.533  0.617E-01  0.178E-17  0.308E-01  0.308E-01
 -19.523  0.614E-01  0.182E-17  0.307E-01  0.307E-01
 -19.513  0.612E-01  0.185E-17  0.306E-01  0.306E-01
 -19.503  0.609E-01  0.188E-17  0.305E-01  0.305E-01
 -19.493  0.605E-01  0.190E-17  0.302E-01  0.302E-01
 -19.483  0.598E-01  0.191E-17  0.299E-01  0.299E-01
 -19.473  0.589E-01  0.190E-17  0.295E-01  0.295E-01
 -19.463  0.577E-01  0.189E-17  0.289E-01  0.289E-01
 -19.453  0.562E-01  0.185E-17  0.281E-01  0.281E-01
 -19.443  0.543E-01  0.181E-17  0.272E-01  0.272E-01
 -19.433  0.521E-01  0.175E-17  0.261E-01  0.261E-01
 -19.423  0.496E-01  0.168E-17  0.248E-01  0.248E-01
 -19.413  0.468E-01  0.160E-17  0.234E-01  0.234E-01
 -19.403  0.439E-01  0.151E-17  0.219E-01  0.219E-01
 -19.393  0.408E-01  0.143E-17  0.204E-01  0.204E-01
 -19.383  0.377E-01  0.134E-17  0.188E-01  0.188E-01
 -19.373  0.345E-01  0.126E-17  0.173E-01  0.173E-01
 -19.363  0.316E-01  0.119E-17  0.158E-01  0.158E-01
 -19.353  0.288E-01  0.113E-17  0.144E-01  0.144E-01
 -19.343  0.262E-01  0.109E-17  0.131E-01  0.131E-01
 -19.333  0.240E-01  0.106E-17  0.120E-01  0.120E-01
 -19.323  0.223E-01  0.106E-17  0.111E-01  0.111E-01
 -19.313  0.209E-01  0.108E-17  0.105E-01  0.105E-01
 -19.303  0.201E-01  0.113E-17  0.100E-01  0.100E-01
 -19.293  0.198E-01  0.120E-17  0.989E-02  0.989E-02
 -19.283  0.200E-01  0.131E-17  0.100E-01  0.100E-01
 -19.273  0.209E-01  0.144E-17  0.104E-01  0.104E-01
 -19.263  0.222E-01  0.159E-17  0.111E-01  0.111E-01
 -19.253  0.242E-01  0.178E-17  0.121E-01  0.121E-01
 -19.243  0.267E-01  0.198E-17  0.134E-01  0.134E-01
 -19.233  0.297E-01  0.221E-17  0.149E-01  0.149E-01
 -19.223  0.333E-01  0.245E-17  0.166E-01  0.166E-01
 -19.213  0.372E-01  0.271E-17  0.186E-01  0.186E-01
 -19.203  0.416E-01  0.297E-17  0.208E-01  0.208E-01
 -19.193  0.463E-01  0.324E-17  0.231E-01  0.231E-01
 -19.183  0.512E-01  0.351E-17  0.256E-01  0.256E-01
 -19.173  0.563E-01  0.378E-17  0.281E-01  0.281E-01
 -19.163  0.614E-01  0.405E-17  0.307E-01  0.307E-01
 -19.153  0.666E-01  0.432E-17  0.333E-01  0.333E-01
 -19.143  0.716E-01  0.458E-17  0.358E-01  0.358E-01
 -19.133  0.765E-01  0.484E-17  0.383E-01  0.383E-01
 -19.123  0.812E-01  0.510E-17  0.406E-01  0.406E-01
 -19.113  0.854E-01  0.537E-17  0.427E-01  0.427E-01
 -19.103  0.893E-01  0.564E-17  0.447E-01  0.447E-01
 -19.093  0.928E-01  0.593E-17  0.464E-01  0.464E-01
 -19.083  0.958E-01  0.623E-17  0.479E-01  0.479E-01
 -19.073  0.983E-01  0.655E-17  0.491E-01  0.491E-01
 -19.063  0.100E+00  0.689E-17  0.501E-01  0.501E-01
 -19.053  0.102E+00  0.726E-17  0.509E-01  0.509E-01
 -19.043  0.103E+00  0.764E-17  0.513E-01  0.513E-01
 -19.033  0.103E+00  0.805E-17  0.516E-01  0.516E-01
 -19.023  0.103E+00  0.847E-17  0.516E-01  0.516E-01
 -19.013  0.103E+00  0.889E-17  0.514E-01  0.514E-01
 -19.003  0.102E+00  0.930E-17  0.510E-01  0.510E-01
 -18.993  0.101E+00  0.970E-17  0.503E-01  0.503E-01
 -18.983  0.991E-01  0.101E-16  0.495E-01  0.495E-01
 -18.973  0.971E-01  0.104E-16  0.486E-01  0.486E-01
 -18.963  0.949E-01  0.107E-16  0.474E-01  0.474E-01
 -18.953  0.923E-01  0.109E-16  0.461E-01  0.461E-01
 -18.943  0.894E-01  0.110E-16  0.447E-01  0.447E-01
 -18.933  0.863E-01  0.110E-16  0.431E-01  0.431E-01
 -18.923  0.829E-01  0.110E-16  0.414E-01  0.414E-01
 -18.913  0.793E-01  0.108E-16  0.397E-01  0.397E-01
 -18.903  0.756E-01  0.106E-16  0.378E-01  0.378E-01
 -18.893  0.718E-01  0.103E-16  0.359E-01  0.359E-01
 -18.883  0.680E-01  0.987E-17  0.340E-01  0.340E-01
 -18.873  0.643E-01  0.941E-17  0.322E-01  0.322E-01
 -18.863  0.607E-01  0.891E-17  0.304E-01  0.304E-01
 -18.853  0.574E-01  0.837E-17  0.287E-01  0.287E-01
 -18.843  0.543E-01  0.781E-17  0.272E-01  0.272E-01
 -18.833  0.517E-01  0.726E-17  0.258E-01  0.258E-01
 -18.823  0.495E-01  0.672E-17  0.247E-01  0.247E-01
 -18.813  0.477E-01  0.620E-17  0.239E-01  0.239E-01
 -18.803  0.466E-01  0.573E-17  0.233E-01  0.233E-01
 -18.793  0.460E-01  0.530E-17  0.230E-01  0.230E-01
 -18.783  0.459E-01  0.492E-17  0.229E-01  0.229E-01
 -18.773  0.463E-01  0.460E-17  0.232E-01  0.232E-01
 -18.763  0.472E-01  0.434E-17  0.236E-01  0.236E-01
 -18.753  0.486E-01  0.413E-17  0.243E-01  0.243E-01
 -18.743  0.502E-01  0.398E-17  0.251E-01  0.251E-01
 -18.733  0.520E-01  0.386E-17  0.260E-01  0.260E-01
 -18.723  0.539E-01  0.379E-17  0.270E-01  0.270E-01
 -18.713  0.558E-01  0.373E-17  0.279E-01  0.279E-01
 -18.703  0.576E-01  0.370E-17  0.288E-01  0.288E-01
 -18.693  0.591E-01  0.368E-17  0.295E-01  0.295E-01
 -18.683  0.602E-01  0.365E-17  0.301E-01  0.301E-01
 -18.673  0.610E-01  0.362E-17  0.305E-01  0.305E-01
 -18.663  0.612E-01  0.358E-17  0.306E-01  0.306E-01
 -18.653  0.609E-01  0.352E-17  0.305E-01  0.305E-01
 -18.643  0.601E-01  0.344E-17  0.301E-01  0.301E-01
 -18.633  0.587E-01  0.333E-17  0.294E-01  0.294E-01
 -18.623  0.569E-01  0.320E-17  0.284E-01  0.284E-01
 -18.613  0.545E-01  0.305E-17  0.273E-01  0.273E-01
 -18.603  0.518E-01  0.288E-17  0.259E-01  0.259E-01
 -18.593  0.489E-01  0.269E-17  0.244E-01  0.244E-01
 -18.583  0.457E-01  0.250E-17  0.228E-01  0.228E-01
 -18.573  0.424E-01  0.229E-17  0.212E-01  0.212E-01
 -18.563  0.392E-01  0.208E-17  0.196E-01  0.196E-01
 -18.553  0.361E-01  0.188E-17  0.180E-01  0.180E-01
 -18.543  0.332E-01  0.168E-17  0.166E-01  0.166E-01
 -18.533  0.307E-01  0.149E-17  0.154E-01  0.154E-01
 -18.523  0.287E-01  0.131E-17  0.143E-01  0.143E-01
 -18.513  0.272E-01  0.115E-17  0.136E-01  0.136E-01
 -18.503  0.262E-01  0.101E-17  0.131E-01  0.131E-01
 -18.493  0.260E-01  0.890E-18  0.130E-01  0.130E-01
 -18.483  0.264E-01  0.793E-18  0.132E-01  0.132E-01
 -18.473  0.276E-01  0.718E-18  0.138E-01  0.138E-01
 -18.463  0.295E-01  0.667E-18  0.148E-01  0.148E-01
 -18.453  0.322E-01  0.639E-18  0.161E-01  0.161E-01
 -18.443  0.357E-01  0.633E-18  0.179E-01  0.179E-01
 -18.433  0.399E-01  0.649E-18  0.200E-01  0.200E-01
 -18.423  0.448E-01  0.686E-18  0.224E-01  0.224E-01
 -18.413  0.503E-01  0.742E-18  0.252E-01  0.252E-01
 -18.403  0.564E-01  0.816E-18  0.282E-01  0.282E-01
 -18.393  0.630E-01  0.905E-18  0.315E-01  0.315E-01
 -18.383  0.698E-01  0.101E-17  0.349E-01  0.349E-01
 -18.373  0.769E-01  0.112E-17  0.385E-01  0.385E-01
 -18.363  0.840E-01  0.124E-17  0.420E-01  0.420E-01
 -18.353  0.911E-01  0.137E-17  0.455E-01  0.455E-01
 -18.343  0.979E-01  0.150E-17  0.489E-01  0.489E-01
 -18.333  0.104E+00  0.162E-17  0.521E-01  0.521E-01
 -18.323  0.110E+00  0.174E-17  0.550E-01  0.550E-01
 -18.313  0.115E+00  0.186E-17  0.576E-01  0.576E-01
 -18.303  0.120E+00  0.195E-17  0.598E-01  0.598E-01
 -18.293  0.123E+00  0.204E-17  0.615E-01  0.615E-01
 -18.283  0.126E+00  0.210E-17  0.628E-01  0.628E-01
 -18.273  0.127E+00  0.215E-17  0.636E-01  0.636E-01
 -18.263  0.128E+00  0.218E-17  0.639E-01  0.639E-01
 -18.253  0.128E+00  0.218E-17  0.638E-01  0.638E-01
 -18.243  0.126E+00  0.216E-17  0.632E-01  0.632E-01
 -18.233  0.125E+00  0.213E-17  0.623E-01  0.623E-01
 -18.223  0.122E+00  0.207E-17  0.611E-01  0.611E-01
 -18.213  0.119E+00  0.200E-17  0.596E-01  0.596E-01
 -18.203  0.116E+00  0.192E-17  0.580E-01  0.580E-01
 -18.193  0.112E+00  0.182E-17  0.562E-01  0.562E-01
 -18.183  0.109E+00  0.172E-17  0.545E-01  0.545E-01
 -18.173  0.105E+00  0.161E-17  0.527E-01  0.527E-01
 -18.163  0.102E+00  0.150E-17  0.511E-01  0.511E-01
 -18.153  0.990E-01  0.139E-17  0.495E-01  0.495E-01
 -18.143  0.961E-01  0.129E-17  0.480E-01  0.480E-01
 -18.133  0.933E-01  0.118E-17  0.467E-01  0.467E-01
 -18.123  0.908E-01  0.109E-17  0.454E-01  0.454E-01
 -18.113  0.884E-01  0.996E-18  0.442E-01  0.442E-01
 -18.103  0.862E-01  0.912E-18  0.431E-01  0.431E-01
 -18.093  0.839E-01  0.835E-18  0.420E-01  0.420E-01
 -18.083  0.817E-01  0.766E-18  0.408E-01  0.408E-01
 -18.073  0.793E-01  0.702E-18  0.396E-01  0.396E-01
 -18.063  0.767E-01  0.645E-18  0.383E-01  0.383E-01
 -18.053  0.739E-01  0.593E-18  0.370E-01  0.370E-01
 -18.043  0.709E-01  0.545E-18  0.355E-01  0.355E-01
 -18.033  0.677E-01  0.502E-18  0.338E-01  0.338E-01
 -18.023  0.642E-01  0.463E-18  0.321E-01  0.321E-01
 -18.013  0.606E-01  0.427E-18  0.303E-01  0.303E-01
 -18.003  0.569E-01  0.394E-18  0.284E-01  0.284E-01
 -17.993  0.531E-01  0.365E-18  0.266E-01  0.266E-01
 -17.983  0.494E-01  0.340E-18  0.247E-01  0.247E-01
 -17.973  0.459E-01  0.319E-18  0.229E-01  0.229E-01
 -17.963  0.426E-01  0.302E-18  0.213E-01  0.213E-01
 -17.953  0.396E-01  0.290E-18  0.198E-01  0.198E-01
 -17.943  0.371E-01  0.283E-18  0.185E-01  0.185E-01
 -17.933  0.350E-01  0.282E-18  0.175E-01  0.175E-01
 -17.923  0.335E-01  0.287E-18  0.168E-01  0.168E-01
 -17.913  0.326E-01  0.298E-18  0.163E-01  0.163E-01
 -17.903  0.324E-01  0.316E-18  0.162E-01  0.162E-01
 -17.893  0.327E-01  0.339E-18  0.164E-01  0.164E-01
 -17.883  0.337E-01  0.369E-18  0.169E-01  0.169E-01
 -17.873  0.353E-01  0.404E-18  0.176E-01  0.176E-01
 -17.863  0.373E-01  0.444E-18  0.187E-01  0.187E-01
 -17.853  0.398E-01  0.488E-18  0.199E-01  0.199E-01
 -17.843  0.427E-01  0.534E-18  0.213E-01  0.213E-01
 -17.833  0.458E-01  0.583E-18  0.229E-01  0.229E-01
 -17.823  0.490E-01  0.631E-18  0.245E-01  0.245E-01
 -17.813  0.522E-01  0.679E-18  0.261E-01  0.261E-01
 -17.803  0.554E-01  0.723E-18  0.277E-01  0.277E-01
 -17.793  0.583E-01  0.764E-18  0.291E-01  0.291E-01
 -17.783  0.609E-01  0.800E-18  0.304E-01  0.304E-01
 -17.773  0.630E-01  0.829E-18  0.315E-01  0.315E-01
 -17.763  0.647E-01  0.850E-18  0.324E-01  0.324E-01
 -17.753  0.659E-01  0.864E-18  0.329E-01  0.329E-01
 -17.743  0.665E-01  0.868E-18  0.333E-01  0.333E-01
 -17.733  0.666E-01  0.865E-18  0.333E-01  0.333E-01
 -17.723  0.661E-01  0.853E-18  0.331E-01  0.331E-01
 -17.713  0.652E-01  0.833E-18  0.326E-01  0.326E-01
 -17.703  0.639E-01  0.806E-18  0.320E-01  0.320E-01
 -17.693  0.624E-01  0.773E-18  0.312E-01  0.312E-01
 -17.683  0.607E-01  0.736E-18  0.303E-01  0.303E-01
 -17.673  0.590E-01  0.695E-18  0.295E-01  0.295E-01
 -17.663  0.573E-01  0.653E-18  0.287E-01  0.287E-01
 -17.653  0.559E-01  0.610E-18  0.280E-01  0.280E-01
 -17.643  0.549E-01  0.569E-18  0.274E-01  0.274E-01
 -17.633  0.543E-01  0.529E-18  0.272E-01  0.272E-01
 -17.623  0.543E-01  0.493E-18  0.271E-01  0.271E-01
 -17.613  0.548E-01  0.461E-18  0.274E-01  0.274E-01
 -17.603  0.560E-01  0.434E-18  0.280E-01  0.280E-01
 -17.593  0.579E-01  0.412E-18  0.290E-01  0.290E-01
 -17.583  0.605E-01  0.396E-18  0.302E-01  0.302E-01
 -17.573  0.636E-01  0.385E-18  0.318E-01  0.318E-01
 -17.563  0.673E-01  0.379E-18  0.337E-01  0.337E-01
 -17.553  0.716E-01  0.378E-18  0.358E-01  0.358E-01
 -17.543  0.762E-01  0.382E-18  0.381E-01  0.381E-01
 -17.533  0.812E-01  0.390E-18  0.406E-01  0.406E-01
 -17.523  0.863E-01  0.401E-18  0.432E-01  0.432E-01
 -17.513  0.916E-01  0.415E-18  0.458E-01  0.458E-01
 -17.503  0.970E-01  0.432E-18  0.485E-01  0.485E-01
 -17.493  0.102E+00  0.450E-18  0.511E-01  0.511E-01
 -17.483  0.107E+00  0.470E-18  0.536E-01  0.536E-01
 -17.473  0.112E+00  0.491E-18  0.560E-01  0.560E-01
 -17.463  0.117E+00  0.512E-18  0.583E-01  0.583E-01
 -17.453  0.121E+00  0.533E-18  0.603E-01  0.603E-01
 -17.443  0.124E+00  0.554E-18  0.621E-01  0.621E-01
 -17.433  0.127E+00  0.574E-18  0.637E-01  0.637E-01
 -17.423  0.130E+00  0.594E-18  0.650E-01  0.650E-01
 -17.413  0.132E+00  0.612E-18  0.659E-01  0.659E-01
 -17.403  0.133E+00  0.629E-18  0.666E-01  0.666E-01
 -17.393  0.134E+00  0.644E-18  0.669E-01  0.669E-01
 -17.383  0.134E+00  0.657E-18  0.670E-01  0.670E-01
 -17.373  0.133E+00  0.666E-18  0.667E-01  0.667E-01
 -17.363  0.132E+00  0.673E-18  0.660E-01  0.660E-01
 -17.353  0.130E+00  0.677E-18  0.651E-01  0.651E-01
 -17.343  0.128E+00  0.678E-18  0.639E-01  0.639E-01
 -17.333  0.125E+00  0.675E-18  0.624E-01  0.624E-01
 -17.323  0.121E+00  0.668E-18  0.607E-01  0.607E-01
 -17.313  0.118E+00  0.658E-18  0.589E-01  0.589E-01
 -17.303  0.114E+00  0.645E-18  0.570E-01  0.570E-01
 -17.293  0.110E+00  0.630E-18  0.550E-01  0.550E-01
 -17.283  0.106E+00  0.612E-18  0.529E-01  0.529E-01
 -17.273  0.102E+00  0.593E-18  0.510E-01  0.510E-01
 -17.263  0.983E-01  0.572E-18  0.492E-01  0.492E-01
 -17.253  0.949E-01  0.550E-18  0.475E-01  0.475E-01
 -17.243  0.919E-01  0.529E-18  0.459E-01  0.459E-01
 -17.233  0.892E-01  0.508E-18  0.446E-01  0.446E-01
 -17.223  0.870E-01  0.487E-18  0.435E-01  0.435E-01
 -17.213  0.851E-01  0.468E-18  0.426E-01  0.426E-01
 -17.203  0.836E-01  0.450E-18  0.418E-01  0.418E-01
 -17.193  0.824E-01  0.433E-18  0.412E-01  0.412E-01
 -17.183  0.814E-01  0.417E-18  0.407E-01  0.407E-01
 -17.173  0.805E-01  0.403E-18  0.402E-01  0.402E-01
 -17.163  0.796E-01  0.389E-18  0.398E-01  0.398E-01
 -17.153  0.787E-01  0.377E-18  0.393E-01  0.393E-01
 -17.143  0.776E-01  0.365E-18  0.388E-01  0.388E-01
 -17.133  0.762E-01  0.353E-18  0.381E-01  0.381E-01
 -17.123  0.746E-01  0.343E-18  0.373E-01  0.373E-01
 -17.113  0.726E-01  0.333E-18  0.363E-01  0.363E-01
 -17.103  0.703E-01  0.323E-18  0.351E-01  0.351E-01
 -17.093  0.676E-01  0.315E-18  0.338E-01  0.338E-01
 -17.083  0.647E-01  0.308E-18  0.323E-01  0.323E-01
 -17.073  0.615E-01  0.304E-18  0.308E-01  0.308E-01
 -17.063  0.582E-01  0.302E-18  0.291E-01  0.291E-01
 -17.053  0.548E-01  0.304E-18  0.274E-01  0.274E-01
 -17.043  0.515E-01  0.310E-18  0.258E-01  0.258E-01
 -17.033  0.484E-01  0.322E-18  0.242E-01  0.242E-01
 -17.023  0.455E-01  0.340E-18  0.227E-01  0.227E-01
 -17.013  0.430E-01  0.365E-18  0.215E-01  0.215E-01
 -17.003  0.409E-01  0.398E-18  0.204E-01  0.204E-01
 -16.993  0.393E-01  0.439E-18  0.197E-01  0.197E-01
 -16.983  0.383E-01  0.489E-18  0.192E-01  0.192E-01
 -16.973  0.379E-01  0.547E-18  0.190E-01  0.190E-01
 -16.963  0.381E-01  0.613E-18  0.191E-01  0.191E-01
 -16.953  0.389E-01  0.687E-18  0.194E-01  0.194E-01
 -16.943  0.402E-01  0.768E-18  0.201E-01  0.201E-01
 -16.933  0.421E-01  0.854E-18  0.210E-01  0.210E-01
 -16.923  0.443E-01  0.943E-18  0.221E-01  0.221E-01
 -16.913  0.468E-01  0.103E-17  0.234E-01  0.234E-01
 -16.903  0.496E-01  0.113E-17  0.248E-01  0.248E-01
 -16.893  0.525E-01  0.121E-17  0.263E-01  0.263E-01
 -16.883  0.555E-01  0.130E-17  0.277E-01  0.277E-01
 -16.873  0.583E-01  0.137E-17  0.292E-01  0.292E-01
 -16.863  0.610E-01  0.144E-17  0.305E-01  0.305E-01
 -16.853  0.635E-01  0.150E-17  0.317E-01  0.317E-01
 -16.843  0.657E-01  0.154E-17  0.328E-01  0.328E-01
 -16.833  0.676E-01  0.157E-17  0.338E-01  0.338E-01
 -16.823  0.692E-01  0.159E-17  0.346E-01  0.346E-01
 -16.813  0.705E-01  0.160E-17  0.353E-01  0.353E-01
 -16.803  0.716E-01  0.159E-17  0.358E-01  0.358E-01
 -16.793  0.726E-01  0.157E-17  0.363E-01  0.363E-01
 -16.783  0.735E-01  0.154E-17  0.367E-01  0.367E-01
 -16.773  0.745E-01  0.151E-17  0.372E-01  0.372E-01
 -16.763  0.756E-01  0.146E-17  0.378E-01  0.378E-01
 -16.753  0.770E-01  0.142E-17  0.385E-01  0.385E-01
 -16.743  0.787E-01  0.138E-17  0.394E-01  0.394E-01
 -16.733  0.809E-01  0.133E-17  0.405E-01  0.405E-01
 -16.723  0.837E-01  0.130E-17  0.418E-01  0.418E-01
 -16.713  0.870E-01  0.126E-17  0.435E-01  0.435E-01
 -16.703  0.909E-01  0.124E-17  0.455E-01  0.455E-01
 -16.693  0.954E-01  0.123E-17  0.477E-01  0.477E-01
 -16.683  0.100E+00  0.123E-17  0.502E-01  0.502E-01
 -16.673  0.106E+00  0.125E-17  0.530E-01  0.530E-01
 -16.663  0.112E+00  0.127E-17  0.560E-01  0.560E-01
 -16.653  0.118E+00  0.132E-17  0.591E-01  0.591E-01
 -16.643  0.125E+00  0.137E-17  0.623E-01  0.623E-01
 -16.633  0.131E+00  0.144E-17  0.655E-01  0.655E-01
 -16.623  0.137E+00  0.152E-17  0.687E-01  0.687E-01
 -16.613  0.143E+00  0.162E-17  0.717E-01  0.717E-01
 -16.603  0.149E+00  0.173E-17  0.746E-01  0.746E-01
 -16.593  0.155E+00  0.184E-17  0.773E-01  0.773E-01
 -16.583  0.159E+00  0.196E-17  0.796E-01  0.796E-01
 -16.573  0.163E+00  0.209E-17  0.816E-01  0.816E-01
 -16.563  0.166E+00  0.222E-17  0.832E-01  0.832E-01
 -16.553  0.169E+00  0.235E-17  0.844E-01  0.844E-01
 -16.543  0.170E+00  0.248E-17  0.851E-01  0.851E-01
 -16.533  0.171E+00  0.259E-17  0.854E-01  0.854E-01
 -16.523  0.170E+00  0.270E-17  0.852E-01  0.852E-01
 -16.513  0.169E+00  0.279E-17  0.846E-01  0.846E-01
 -16.503  0.167E+00  0.287E-17  0.834E-01  0.834E-01
 -16.493  0.164E+00  0.292E-17  0.819E-01  0.819E-01
 -16.483  0.160E+00  0.296E-17  0.798E-01  0.798E-01
 -16.473  0.155E+00  0.297E-17  0.774E-01  0.774E-01
 -16.463  0.149E+00  0.295E-17  0.745E-01  0.745E-01
 -16.453  0.143E+00  0.290E-17  0.713E-01  0.713E-01
 -16.443  0.136E+00  0.283E-17  0.678E-01  0.678E-01
 -16.433  0.128E+00  0.274E-17  0.639E-01  0.639E-01
 -16.423  0.120E+00  0.263E-17  0.599E-01  0.599E-01
 -16.413  0.111E+00  0.249E-17  0.557E-01  0.557E-01
 -16.403  0.103E+00  0.234E-17  0.514E-01  0.514E-01
 -16.393  0.941E-01  0.218E-17  0.471E-01  0.471E-01
 -16.383  0.854E-01  0.200E-17  0.427E-01  0.427E-01
 -16.373  0.769E-01  0.183E-17  0.385E-01  0.385E-01
 -16.363  0.687E-01  0.165E-17  0.343E-01  0.343E-01
 -16.353  0.607E-01  0.147E-17  0.304E-01  0.304E-01
 -16.343  0.532E-01  0.130E-17  0.266E-01  0.266E-01
 -16.333  0.462E-01  0.114E-17  0.231E-01  0.231E-01
 -16.323  0.398E-01  0.984E-18  0.199E-01  0.199E-01
 -16.313  0.339E-01  0.843E-18  0.170E-01  0.170E-01
 -16.303  0.286E-01  0.715E-18  0.143E-01  0.143E-01
 -16.293  0.239E-01  0.599E-18  0.120E-01  0.120E-01
 -16.283  0.198E-01  0.497E-18  0.991E-02  0.991E-02
 -16.273  0.163E-01  0.408E-18  0.813E-02  0.813E-02
 -16.263  0.132E-01  0.332E-18  0.660E-02  0.660E-02
 -16.253  0.106E-01  0.266E-18  0.531E-02  0.531E-02
 -16.243  0.848E-02  0.212E-18  0.424E-02  0.424E-02
 -16.233  0.673E-02  0.167E-18  0.336E-02  0.336E-02
 -16.223  0.531E-02  0.130E-18  0.265E-02  0.265E-02
 -16.213  0.419E-02  0.100E-18  0.210E-02  0.210E-02
 -16.203  0.334E-02  0.762E-19  0.167E-02  0.167E-02
 -16.193  0.271E-02  0.575E-19  0.135E-02  0.135E-02
 -16.183  0.228E-02  0.430E-19  0.114E-02  0.114E-02
 -16.173  0.203E-02  0.318E-19  0.101E-02  0.101E-02
 -16.163  0.194E-02  0.234E-19  0.968E-03  0.968E-03
 -16.153  0.200E-02  0.171E-19  0.998E-03  0.998E-03
 -16.143  0.220E-02  0.125E-19  0.110E-02  0.110E-02
 -16.133  0.255E-02  0.921E-20  0.128E-02  0.128E-02
 -16.123  0.304E-02  0.693E-20  0.152E-02  0.152E-02
 -16.113  0.369E-02  0.544E-20  0.184E-02  0.184E-02
 -16.103  0.449E-02  0.455E-20  0.225E-02  0.225E-02
 -16.093  0.546E-02  0.414E-20  0.273E-02  0.273E-02
 -16.083  0.661E-02  0.413E-20  0.330E-02  0.330E-02
 -16.073  0.794E-02  0.446E-20  0.397E-02  0.397E-02
 -16.063  0.945E-02  0.512E-20  0.472E-02  0.472E-02
 -16.053  0.111E-01  0.610E-20  0.557E-02  0.557E-02
 -16.043  0.130E-01  0.743E-20  0.651E-02  0.651E-02
 -16.033  0.151E-01  0.916E-20  0.754E-02  0.754E-02
 -16.023  0.173E-01  0.113E-19  0.865E-02  0.865E-02
 -16.013  0.197E-01  0.141E-19  0.983E-02  0.983E-02
 -16.003  0.221E-01  0.174E-19  0.111E-01  0.111E-01
 -15.993  0.247E-01  0.216E-19  0.124E-01  0.124E-01
 -15.983  0.274E-01  0.267E-19  0.137E-01  0.137E-01
 -15.973  0.301E-01  0.328E-19  0.151E-01  0.151E-01
 -15.963  0.329E-01  0.403E-19  0.165E-01  0.165E-01
 -15.953  0.357E-01  0.492E-19  0.179E-01  0.179E-01
 -15.943  0.385E-01  0.598E-19  0.192E-01  0.192E-01
 -15.933  0.413E-01  0.722E-19  0.206E-01  0.206E-01
 -15.923  0.440E-01  0.867E-19  0.220E-01  0.220E-01
 -15.913  0.468E-01  0.103E-18  0.234E-01  0.234E-01
 -15.903  0.495E-01  0.122E-18  0.248E-01  0.248E-01
 -15.893  0.523E-01  0.143E-18  0.261E-01  0.261E-01
 -15.883  0.551E-01  0.167E-18  0.275E-01  0.275E-01
 -15.873  0.578E-01  0.193E-18  0.289E-01  0.289E-01
 -15.863  0.606E-01  0.220E-18  0.303E-01  0.303E-01
 -15.853  0.634E-01  0.250E-18  0.317E-01  0.317E-01
 -15.843  0.662E-01  0.280E-18  0.331E-01  0.331E-01
 -15.833  0.689E-01  0.311E-18  0.345E-01  0.345E-01
 -15.823  0.716E-01  0.343E-18  0.358E-01  0.358E-01
 -15.813  0.741E-01  0.373E-18  0.370E-01  0.370E-01
 -15.803  0.764E-01  0.403E-18  0.382E-01  0.382E-01
 -15.793  0.784E-01  0.430E-18  0.392E-01  0.392E-01
 -15.783  0.801E-01  0.454E-18  0.401E-01  0.401E-01
 -15.773  0.814E-01  0.475E-18  0.407E-01  0.407E-01
 -15.763  0.821E-01  0.492E-18  0.411E-01  0.411E-01
 -15.753  0.824E-01  0.504E-18  0.412E-01  0.412E-01
 -15.743  0.820E-01  0.511E-18  0.410E-01  0.410E-01
 -15.733  0.810E-01  0.513E-18  0.405E-01  0.405E-01
 -15.723  0.794E-01  0.510E-18  0.397E-01  0.397E-01
 -15.713  0.772E-01  0.502E-18  0.386E-01  0.386E-01
 -15.703  0.744E-01  0.490E-18  0.372E-01  0.372E-01
 -15.693  0.712E-01  0.474E-18  0.356E-01  0.356E-01
 -15.683  0.675E-01  0.455E-18  0.337E-01  0.337E-01
 -15.673  0.635E-01  0.433E-18  0.318E-01  0.318E-01
 -15.663  0.593E-01  0.411E-18  0.297E-01  0.297E-01
 -15.653  0.550E-01  0.387E-18  0.275E-01  0.275E-01
 -15.643  0.508E-01  0.365E-18  0.254E-01  0.254E-01
 -15.633  0.466E-01  0.344E-18  0.233E-01  0.233E-01
 -15.623  0.427E-01  0.327E-18  0.214E-01  0.214E-01
 -15.613  0.392E-01  0.312E-18  0.196E-01  0.196E-01
 -15.603  0.360E-01  0.302E-18  0.180E-01  0.180E-01
 -15.593  0.333E-01  0.298E-18  0.166E-01  0.166E-01
 -15.583  0.310E-01  0.299E-18  0.155E-01  0.155E-01
 -15.573  0.293E-01  0.306E-18  0.147E-01  0.147E-01
 -15.563  0.281E-01  0.321E-18  0.141E-01  0.141E-01
 -15.553  0.274E-01  0.344E-18  0.137E-01  0.137E-01
 -15.543  0.272E-01  0.374E-18  0.136E-01  0.136E-01
 -15.533  0.275E-01  0.413E-18  0.137E-01  0.137E-01
 -15.523  0.281E-01  0.462E-18  0.141E-01  0.141E-01
 -15.513  0.291E-01  0.521E-18  0.145E-01  0.145E-01
 -15.503  0.304E-01  0.592E-18  0.152E-01  0.152E-01
 -15.493  0.319E-01  0.674E-18  0.160E-01  0.160E-01
 -15.483  0.337E-01  0.770E-18  0.168E-01  0.168E-01
 -15.473  0.356E-01  0.880E-18  0.178E-01  0.178E-01
 -15.463  0.376E-01  0.101E-17  0.188E-01  0.188E-01
 -15.453  0.398E-01  0.115E-17  0.199E-01  0.199E-01
 -15.443  0.421E-01  0.131E-17  0.210E-01  0.210E-01
 -15.433  0.445E-01  0.149E-17  0.222E-01  0.222E-01
 -15.423  0.470E-01  0.169E-17  0.235E-01  0.235E-01
 -15.413  0.496E-01  0.190E-17  0.248E-01  0.248E-01
 -15.403  0.523E-01  0.214E-17  0.262E-01  0.262E-01
 -15.393  0.553E-01  0.239E-17  0.276E-01  0.276E-01
 -15.383  0.584E-01  0.266E-17  0.292E-01  0.292E-01
 -15.373  0.617E-01  0.294E-17  0.309E-01  0.309E-01
 -15.363  0.653E-01  0.323E-17  0.327E-01  0.327E-01
 -15.353  0.691E-01  0.353E-17  0.346E-01  0.346E-01
 -15.343  0.732E-01  0.383E-17  0.366E-01  0.366E-01
 -15.333  0.774E-01  0.412E-17  0.387E-01  0.387E-01
 -15.323  0.819E-01  0.440E-17  0.410E-01  0.410E-01
 -15.313  0.866E-01  0.467E-17  0.433E-01  0.433E-01
 -15.303  0.915E-01  0.493E-17  0.457E-01  0.457E-01
 -15.293  0.965E-01  0.516E-17  0.482E-01  0.482E-01
 -15.283  0.102E+00  0.536E-17  0.508E-01  0.508E-01
 -15.273  0.107E+00  0.553E-17  0.533E-01  0.533E-01
 -15.263  0.112E+00  0.567E-17  0.559E-01  0.559E-01
 -15.253  0.117E+00  0.577E-17  0.583E-01  0.583E-01
 -15.243  0.121E+00  0.584E-17  0.607E-01  0.607E-01
 -15.233  0.126E+00  0.587E-17  0.629E-01  0.629E-01
 -15.223  0.130E+00  0.587E-17  0.650E-01  0.650E-01
 -15.213  0.134E+00  0.583E-17  0.668E-01  0.668E-01
 -15.203  0.137E+00  0.576E-17  0.684E-01  0.684E-01
 -15.193  0.139E+00  0.566E-17  0.697E-01  0.697E-01
 -15.183  0.141E+00  0.553E-17  0.706E-01  0.706E-01
 -15.173  0.142E+00  0.537E-17  0.712E-01  0.712E-01
 -15.163  0.143E+00  0.518E-17  0.714E-01  0.714E-01
 -15.153  0.142E+00  0.498E-17  0.712E-01  0.712E-01
 -15.143  0.141E+00  0.475E-17  0.706E-01  0.706E-01
 -15.133  0.139E+00  0.450E-17  0.697E-01  0.697E-01
 -15.123  0.137E+00  0.424E-17  0.685E-01  0.685E-01
 -15.113  0.134E+00  0.398E-17  0.669E-01  0.669E-01
 -15.103  0.130E+00  0.370E-17  0.652E-01  0.652E-01
 -15.093  0.127E+00  0.342E-17  0.633E-01  0.633E-01
 -15.083  0.123E+00  0.314E-17  0.613E-01  0.613E-01
 -15.073  0.119E+00  0.286E-17  0.593E-01  0.593E-01
 -15.063  0.115E+00  0.259E-17  0.574E-01  0.574E-01
 -15.053  0.111E+00  0.233E-17  0.556E-01  0.556E-01
 -15.043  0.108E+00  0.209E-17  0.542E-01  0.542E-01
 -15.033  0.106E+00  0.186E-17  0.530E-01  0.530E-01
 -15.023  0.104E+00  0.164E-17  0.522E-01  0.522E-01
 -15.013  0.104E+00  0.145E-17  0.519E-01  0.519E-01
 -15.003  0.104E+00  0.128E-17  0.521E-01  0.521E-01
 -14.993  0.105E+00  0.112E-17  0.527E-01  0.527E-01
 -14.983  0.108E+00  0.992E-18  0.539E-01  0.539E-01
 -14.973  0.111E+00  0.881E-18  0.556E-01  0.556E-01
 -14.963  0.115E+00  0.790E-18  0.577E-01  0.577E-01
 -14.953  0.120E+00  0.718E-18  0.602E-01  0.602E-01
 -14.943  0.126E+00  0.662E-18  0.630E-01  0.630E-01
 -14.933  0.132E+00  0.622E-18  0.660E-01  0.660E-01
 -14.923  0.138E+00  0.594E-18  0.692E-01  0.692E-01
 -14.913  0.145E+00  0.577E-18  0.725E-01  0.725E-01
 -14.903  0.151E+00  0.570E-18  0.756E-01  0.756E-01
 -14.893  0.157E+00  0.569E-18  0.785E-01  0.785E-01
 -14.883  0.162E+00  0.574E-18  0.812E-01  0.812E-01
 -14.873  0.167E+00  0.583E-18  0.835E-01  0.835E-01
 -14.863  0.170E+00  0.594E-18  0.852E-01  0.852E-01
 -14.853  0.173E+00  0.607E-18  0.865E-01  0.865E-01
 -14.843  0.174E+00  0.621E-18  0.872E-01  0.872E-01
 -14.833  0.175E+00  0.635E-18  0.873E-01  0.873E-01
 -14.823  0.174E+00  0.649E-18  0.868E-01  0.868E-01
 -14.813  0.172E+00  0.662E-18  0.858E-01  0.858E-01
 -14.803  0.169E+00  0.675E-18  0.843E-01  0.843E-01
 -14.793  0.165E+00  0.688E-18  0.824E-01  0.824E-01
 -14.783  0.160E+00  0.701E-18  0.802E-01  0.802E-01
 -14.773  0.156E+00  0.715E-18  0.778E-01  0.778E-01
 -14.763  0.151E+00  0.728E-18  0.753E-01  0.753E-01
 -14.753  0.146E+00  0.742E-18  0.728E-01  0.728E-01
 -14.743  0.141E+00  0.757E-18  0.705E-01  0.705E-01
 -14.733  0.137E+00  0.772E-18  0.683E-01  0.683E-01
 -14.723  0.133E+00  0.787E-18  0.665E-01  0.665E-01
 -14.713  0.130E+00  0.802E-18  0.651E-01  0.651E-01
 -14.703  0.128E+00  0.818E-18  0.641E-01  0.641E-01
 -14.693  0.127E+00  0.832E-18  0.637E-01  0.637E-01
 -14.683  0.128E+00  0.847E-18  0.638E-01  0.638E-01
 -14.673  0.129E+00  0.860E-18  0.644E-01  0.644E-01
 -14.663  0.131E+00  0.871E-18  0.657E-01  0.657E-01
 -14.653  0.135E+00  0.882E-18  0.674E-01  0.674E-01
 -14.643  0.139E+00  0.891E-18  0.697E-01  0.697E-01
 -14.633  0.145E+00  0.898E-18  0.725E-01  0.725E-01
 -14.623  0.151E+00  0.903E-18  0.756E-01  0.756E-01
 -14.613  0.158E+00  0.906E-18  0.791E-01  0.791E-01
 -14.603  0.166E+00  0.907E-18  0.828E-01  0.828E-01
 -14.593  0.173E+00  0.906E-18  0.865E-01  0.865E-01
 -14.583  0.181E+00  0.903E-18  0.903E-01  0.903E-01
 -14.573  0.188E+00  0.898E-18  0.938E-01  0.938E-01
 -14.563  0.194E+00  0.890E-18  0.971E-01  0.971E-01
 -14.553  0.200E+00  0.879E-18  0.999E-01  0.999E-01
 -14.543  0.204E+00  0.866E-18  0.102E+00  0.102E+00
 -14.533  0.208E+00  0.849E-18  0.104E+00  0.104E+00
 -14.523  0.209E+00  0.829E-18  0.105E+00  0.105E+00
 -14.513  0.209E+00  0.805E-18  0.105E+00  0.105E+00
 -14.503  0.208E+00  0.778E-18  0.104E+00  0.104E+00
 -14.493  0.204E+00  0.748E-18  0.102E+00  0.102E+00
 -14.483  0.199E+00  0.714E-18  0.995E-01  0.995E-01
 -14.473  0.192E+00  0.676E-18  0.961E-01  0.961E-01
 -14.463  0.184E+00  0.636E-18  0.919E-01  0.919E-01
 -14.453  0.174E+00  0.594E-18  0.871E-01  0.871E-01
 -14.443  0.163E+00  0.550E-18  0.817E-01  0.817E-01
 -14.433  0.152E+00  0.506E-18  0.760E-01  0.760E-01
 -14.423  0.140E+00  0.460E-18  0.701E-01  0.701E-01
 -14.413  0.128E+00  0.416E-18  0.640E-01  0.640E-01
 -14.403  0.116E+00  0.372E-18  0.580E-01  0.580E-01
 -14.393  0.105E+00  0.330E-18  0.523E-01  0.523E-01
 -14.383  0.936E-01  0.291E-18  0.468E-01  0.468E-01
 -14.373  0.836E-01  0.254E-18  0.418E-01  0.418E-01
 -14.363  0.746E-01  0.221E-18  0.373E-01  0.373E-01
 -14.353  0.669E-01  0.191E-18  0.334E-01  0.334E-01
 -14.343  0.605E-01  0.165E-18  0.302E-01  0.302E-01
 -14.333  0.554E-01  0.142E-18  0.277E-01  0.277E-01
 -14.323  0.519E-01  0.124E-18  0.259E-01  0.259E-01
 -14.313  0.497E-01  0.109E-18  0.249E-01  0.249E-01
 -14.303  0.490E-01  0.978E-19  0.245E-01  0.245E-01
 -14.293  0.497E-01  0.903E-19  0.249E-01  0.249E-01
 -14.283  0.517E-01  0.864E-19  0.258E-01  0.258E-01
 -14.273  0.549E-01  0.859E-19  0.274E-01  0.274E-01
 -14.263  0.592E-01  0.886E-19  0.296E-01  0.296E-01
 -14.253  0.645E-01  0.946E-19  0.322E-01  0.322E-01
 -14.243  0.706E-01  0.104E-18  0.353E-01  0.353E-01
 -14.233  0.774E-01  0.116E-18  0.387E-01  0.387E-01
 -14.223  0.847E-01  0.131E-18  0.423E-01  0.423E-01
 -14.213  0.924E-01  0.149E-18  0.462E-01  0.462E-01
 -14.203  0.100E+00  0.170E-18  0.501E-01  0.501E-01
 -14.193  0.108E+00  0.194E-18  0.541E-01  0.541E-01
 -14.183  0.116E+00  0.221E-18  0.581E-01  0.581E-01
 -14.173  0.124E+00  0.250E-18  0.619E-01  0.619E-01
 -14.163  0.131E+00  0.282E-18  0.655E-01  0.655E-01
 -14.153  0.138E+00  0.316E-18  0.689E-01  0.689E-01
 -14.143  0.144E+00  0.352E-18  0.719E-01  0.719E-01
 -14.133  0.149E+00  0.389E-18  0.746E-01  0.746E-01
 -14.123  0.154E+00  0.427E-18  0.770E-01  0.770E-01
 -14.113  0.158E+00  0.466E-18  0.789E-01  0.789E-01
 -14.103  0.161E+00  0.504E-18  0.804E-01  0.804E-01
 -14.093  0.163E+00  0.541E-18  0.814E-01  0.814E-01
 -14.083  0.164E+00  0.576E-18  0.819E-01  0.819E-01
 -14.073  0.164E+00  0.609E-18  0.820E-01  0.820E-01
 -14.063  0.163E+00  0.640E-18  0.816E-01  0.816E-01
 -14.053  0.162E+00  0.668E-18  0.808E-01  0.808E-01
 -14.043  0.159E+00  0.692E-18  0.795E-01  0.795E-01
 -14.033  0.156E+00  0.714E-18  0.778E-01  0.778E-01
 -14.023  0.152E+00  0.733E-18  0.758E-01  0.758E-01
 -14.013  0.147E+00  0.751E-18  0.734E-01  0.734E-01
 -14.003  0.142E+00  0.768E-18  0.708E-01  0.708E-01
 -13.993  0.136E+00  0.786E-18  0.681E-01  0.681E-01
 -13.983  0.130E+00  0.806E-18  0.652E-01  0.652E-01
 -13.973  0.125E+00  0.831E-18  0.623E-01  0.623E-01
 -13.963  0.119E+00  0.861E-18  0.595E-01  0.595E-01
 -13.953  0.114E+00  0.900E-18  0.568E-01  0.568E-01
 -13.943  0.109E+00  0.949E-18  0.545E-01  0.545E-01
 -13.933  0.105E+00  0.101E-17  0.525E-01  0.525E-01
 -13.923  0.102E+00  0.108E-17  0.509E-01  0.509E-01
 -13.913  0.996E-01  0.117E-17  0.498E-01  0.498E-01
 -13.903  0.986E-01  0.128E-17  0.493E-01  0.493E-01
 -13.893  0.987E-01  0.139E-17  0.493E-01  0.493E-01
 -13.883  0.999E-01  0.153E-17  0.500E-01  0.500E-01
 -13.873  0.102E+00  0.167E-17  0.511E-01  0.511E-01
 -13.863  0.106E+00  0.182E-17  0.528E-01  0.528E-01
 -13.853  0.110E+00  0.198E-17  0.549E-01  0.549E-01
 -13.843  0.115E+00  0.214E-17  0.574E-01  0.574E-01
 -13.833  0.120E+00  0.229E-17  0.601E-01  0.601E-01
 -13.823  0.126E+00  0.245E-17  0.629E-01  0.629E-01
 -13.813  0.131E+00  0.258E-17  0.657E-01  0.657E-01
 -13.803  0.137E+00  0.271E-17  0.684E-01  0.684E-01
 -13.793  0.141E+00  0.281E-17  0.707E-01  0.707E-01
 -13.783  0.145E+00  0.289E-17  0.727E-01  0.727E-01
 -13.773  0.148E+00  0.294E-17  0.742E-01  0.742E-01
 -13.763  0.150E+00  0.296E-17  0.750E-01  0.750E-01
 -13.753  0.150E+00  0.295E-17  0.752E-01  0.752E-01
 -13.743  0.150E+00  0.291E-17  0.748E-01  0.748E-01
 -13.733  0.147E+00  0.285E-17  0.736E-01  0.736E-01
 -13.723  0.143E+00  0.275E-17  0.717E-01  0.717E-01
 -13.713  0.139E+00  0.263E-17  0.693E-01  0.693E-01
 -13.703  0.132E+00  0.249E-17  0.662E-01  0.662E-01
 -13.693  0.125E+00  0.233E-17  0.627E-01  0.627E-01
 -13.683  0.118E+00  0.216E-17  0.588E-01  0.588E-01
 -13.673  0.109E+00  0.198E-17  0.546E-01  0.546E-01
 -13.663  0.100E+00  0.179E-17  0.502E-01  0.502E-01
 -13.653  0.917E-01  0.161E-17  0.459E-01  0.459E-01
 -13.643  0.831E-01  0.143E-17  0.415E-01  0.415E-01
 -13.633  0.748E-01  0.126E-17  0.374E-01  0.374E-01
 -13.623  0.671E-01  0.110E-17  0.335E-01  0.335E-01
 -13.613  0.600E-01  0.950E-18  0.300E-01  0.300E-01
 -13.603  0.538E-01  0.817E-18  0.269E-01  0.269E-01
 -13.593  0.485E-01  0.698E-18  0.242E-01  0.242E-01
 -13.583  0.441E-01  0.594E-18  0.221E-01  0.221E-01
 -13.573  0.408E-01  0.506E-18  0.204E-01  0.204E-01
 -13.563  0.385E-01  0.432E-18  0.193E-01  0.193E-01
 -13.553  0.373E-01  0.373E-18  0.187E-01  0.187E-01
 -13.543  0.371E-01  0.327E-18  0.185E-01  0.185E-01
 -13.533  0.378E-01  0.292E-18  0.189E-01  0.189E-01
 -13.523  0.394E-01  0.269E-18  0.197E-01  0.197E-01
 -13.513  0.419E-01  0.254E-18  0.210E-01  0.210E-01
 -13.503  0.452E-01  0.248E-18  0.226E-01  0.226E-01
 -13.493  0.492E-01  0.249E-18  0.246E-01  0.246E-01
 -13.483  0.537E-01  0.256E-18  0.269E-01  0.269E-01
 -13.473  0.588E-01  0.268E-18  0.294E-01  0.294E-01
 -13.463  0.644E-01  0.283E-18  0.322E-01  0.322E-01
 -13.453  0.702E-01  0.302E-18  0.351E-01  0.351E-01
 -13.443  0.764E-01  0.323E-18  0.382E-01  0.382E-01
 -13.433  0.827E-01  0.346E-18  0.414E-01  0.414E-01
 -13.423  0.891E-01  0.370E-18  0.446E-01  0.446E-01
 -13.413  0.955E-01  0.394E-18  0.478E-01  0.478E-01
 -13.403  0.102E+00  0.419E-18  0.509E-01  0.509E-01
 -13.393  0.108E+00  0.443E-18  0.540E-01  0.540E-01
 -13.383  0.114E+00  0.467E-18  0.569E-01  0.569E-01
 -13.373  0.119E+00  0.490E-18  0.597E-01  0.597E-01
 -13.363  0.125E+00  0.512E-18  0.623E-01  0.623E-01
 -13.353  0.129E+00  0.533E-18  0.646E-01  0.646E-01
 -13.343  0.133E+00  0.553E-18  0.667E-01  0.667E-01
 -13.333  0.137E+00  0.572E-18  0.685E-01  0.685E-01
 -13.323  0.140E+00  0.590E-18  0.699E-01  0.699E-01
 -13.313  0.142E+00  0.607E-18  0.711E-01  0.711E-01
 -13.303  0.144E+00  0.623E-18  0.719E-01  0.719E-01
 -13.293  0.145E+00  0.639E-18  0.724E-01  0.724E-01
 -13.283  0.145E+00  0.655E-18  0.727E-01  0.727E-01
 -13.273  0.145E+00  0.672E-18  0.726E-01  0.726E-01
 -13.263  0.145E+00  0.689E-18  0.724E-01  0.724E-01
 -13.253  0.144E+00  0.707E-18  0.719E-01  0.719E-01
 -13.243  0.143E+00  0.727E-18  0.713E-01  0.713E-01
 -13.233  0.141E+00  0.748E-18  0.706E-01  0.706E-01
 -13.223  0.140E+00  0.771E-18  0.699E-01  0.699E-01
 -13.213  0.138E+00  0.796E-18  0.691E-01  0.691E-01
 -13.203  0.137E+00  0.823E-18  0.684E-01  0.684E-01
 -13.193  0.135E+00  0.850E-18  0.677E-01  0.677E-01
 -13.183  0.134E+00  0.878E-18  0.670E-01  0.670E-01
 -13.173  0.133E+00  0.905E-18  0.664E-01  0.664E-01
 -13.163  0.131E+00  0.931E-18  0.657E-01  0.657E-01
 -13.153  0.130E+00  0.954E-18  0.651E-01  0.651E-01
 -13.143  0.129E+00  0.974E-18  0.644E-01  0.644E-01
 -13.133  0.127E+00  0.989E-18  0.635E-01  0.635E-01
 -13.123  0.125E+00  0.998E-18  0.625E-01  0.625E-01
 -13.113  0.123E+00  0.100E-17  0.614E-01  0.614E-01
 -13.103  0.120E+00  0.996E-18  0.599E-01  0.599E-01
 -13.093  0.116E+00  0.984E-18  0.582E-01  0.582E-01
 -13.083  0.113E+00  0.964E-18  0.563E-01  0.563E-01
 -13.073  0.108E+00  0.935E-18  0.540E-01  0.540E-01
 -13.063  0.103E+00  0.900E-18  0.515E-01  0.515E-01
 -13.053  0.974E-01  0.858E-18  0.487E-01  0.487E-01
 -13.043  0.914E-01  0.810E-18  0.457E-01  0.457E-01
 -13.033  0.850E-01  0.757E-18  0.425E-01  0.425E-01
 -13.023  0.785E-01  0.700E-18  0.393E-01  0.393E-01
 -13.013  0.719E-01  0.642E-18  0.359E-01  0.359E-01
 -13.003  0.653E-01  0.582E-18  0.327E-01  0.327E-01
 -12.993  0.589E-01  0.523E-18  0.295E-01  0.295E-01
 -12.983  0.529E-01  0.466E-18  0.264E-01  0.264E-01
 -12.973  0.473E-01  0.411E-18  0.236E-01  0.236E-01
 -12.963  0.423E-01  0.359E-18  0.211E-01  0.211E-01
 -12.953  0.379E-01  0.311E-18  0.189E-01  0.189E-01
 -12.943  0.343E-01  0.268E-18  0.171E-01  0.171E-01
 -12.933  0.315E-01  0.231E-18  0.158E-01  0.158E-01
 -12.923  0.297E-01  0.198E-18  0.148E-01  0.148E-01
 -12.913  0.287E-01  0.170E-18  0.144E-01  0.144E-01
 -12.903  0.288E-01  0.148E-18  0.144E-01  0.144E-01
 -12.893  0.299E-01  0.131E-18  0.149E-01  0.149E-01
 -12.883  0.320E-01  0.118E-18  0.160E-01  0.160E-01
 -12.873  0.351E-01  0.111E-18  0.175E-01  0.175E-01
 -12.863  0.392E-01  0.107E-18  0.196E-01  0.196E-01
 -12.853  0.443E-01  0.108E-18  0.222E-01  0.222E-01
 -12.843  0.503E-01  0.112E-18  0.252E-01  0.252E-01
 -12.833  0.572E-01  0.120E-18  0.286E-01  0.286E-01
 -12.823  0.648E-01  0.131E-18  0.324E-01  0.324E-01
 -12.813  0.730E-01  0.146E-18  0.365E-01  0.365E-01
 -12.803  0.817E-01  0.163E-18  0.409E-01  0.409E-01
 -12.793  0.908E-01  0.183E-18  0.454E-01  0.454E-01
 -12.783  0.100E+00  0.205E-18  0.500E-01  0.500E-01
 -12.773  0.109E+00  0.230E-18  0.547E-01  0.547E-01
 -12.763  0.118E+00  0.258E-18  0.592E-01  0.592E-01
 -12.753  0.127E+00  0.288E-18  0.636E-01  0.636E-01
 -12.743  0.135E+00  0.321E-18  0.677E-01  0.677E-01
 -12.733  0.143E+00  0.356E-18  0.716E-01  0.716E-01
 -12.723  0.150E+00  0.394E-18  0.750E-01  0.750E-01
 -12.713  0.156E+00  0.435E-18  0.781E-01  0.781E-01
 -12.703  0.161E+00  0.478E-18  0.807E-01  0.807E-01
 -12.693  0.166E+00  0.524E-18  0.828E-01  0.828E-01
 -12.683  0.169E+00  0.573E-18  0.845E-01  0.845E-01
 -12.673  0.171E+00  0.623E-18  0.857E-01  0.857E-01
 -12.663  0.173E+00  0.676E-18  0.865E-01  0.865E-01
 -12.653  0.174E+00  0.729E-18  0.869E-01  0.869E-01
 -12.643  0.174E+00  0.783E-18  0.870E-01  0.870E-01
 -12.633  0.173E+00  0.837E-18  0.867E-01  0.867E-01
 -12.623  0.172E+00  0.889E-18  0.862E-01  0.862E-01
 -12.613  0.171E+00  0.939E-18  0.854E-01  0.854E-01
 -12.603  0.169E+00  0.985E-18  0.844E-01  0.844E-01
 -12.593  0.166E+00  0.103E-17  0.832E-01  0.832E-01
 -12.583  0.164E+00  0.106E-17  0.819E-01  0.819E-01
 -12.573  0.161E+00  0.109E-17  0.804E-01  0.804E-01
 -12.563  0.158E+00  0.112E-17  0.788E-01  0.788E-01
 -12.553  0.154E+00  0.113E-17  0.771E-01  0.771E-01
 -12.543  0.151E+00  0.114E-17  0.754E-01  0.754E-01
 -12.533  0.147E+00  0.114E-17  0.736E-01  0.736E-01
 -12.523  0.144E+00  0.114E-17  0.718E-01  0.718E-01
 -12.513  0.140E+00  0.113E-17  0.701E-01  0.701E-01
 -12.503  0.137E+00  0.112E-17  0.685E-01  0.685E-01
 -12.493  0.134E+00  0.110E-17  0.671E-01  0.671E-01
 -12.483  0.132E+00  0.108E-17  0.660E-01  0.660E-01
 -12.473  0.130E+00  0.106E-17  0.651E-01  0.651E-01
 -12.463  0.129E+00  0.105E-17  0.645E-01  0.645E-01
 -12.453  0.129E+00  0.103E-17  0.644E-01  0.644E-01
 -12.443  0.129E+00  0.102E-17  0.646E-01  0.646E-01
 -12.433  0.130E+00  0.101E-17  0.652E-01  0.652E-01
 -12.423  0.132E+00  0.101E-17  0.662E-01  0.662E-01
 -12.413  0.135E+00  0.101E-17  0.675E-01  0.675E-01
 -12.403  0.138E+00  0.102E-17  0.690E-01  0.690E-01
 -12.393  0.142E+00  0.102E-17  0.708E-01  0.708E-01
 -12.383  0.145E+00  0.103E-17  0.727E-01  0.727E-01
 -12.373  0.149E+00  0.104E-17  0.745E-01  0.745E-01
 -12.363  0.153E+00  0.106E-17  0.763E-01  0.763E-01
 -12.353  0.156E+00  0.106E-17  0.778E-01  0.778E-01
 -12.343  0.158E+00  0.107E-17  0.791E-01  0.791E-01
 -12.333  0.160E+00  0.107E-17  0.800E-01  0.800E-01
 -12.323  0.161E+00  0.107E-17  0.805E-01  0.805E-01
 -12.313  0.161E+00  0.106E-17  0.806E-01  0.806E-01
 -12.303  0.160E+00  0.105E-17  0.802E-01  0.802E-01
 -12.293  0.159E+00  0.104E-17  0.794E-01  0.794E-01
 -12.283  0.156E+00  0.103E-17  0.782E-01  0.782E-01
 -12.273  0.153E+00  0.101E-17  0.767E-01  0.767E-01
 -12.263  0.150E+00  0.100E-17  0.750E-01  0.750E-01
 -12.253  0.146E+00  0.992E-18  0.731E-01  0.731E-01
 -12.243  0.142E+00  0.992E-18  0.711E-01  0.711E-01
 -12.233  0.138E+00  0.100E-17  0.692E-01  0.692E-01
 -12.223  0.135E+00  0.103E-17  0.675E-01  0.675E-01
 -12.213  0.132E+00  0.107E-17  0.660E-01  0.660E-01
 -12.203  0.130E+00  0.113E-17  0.648E-01  0.648E-01
 -12.193  0.128E+00  0.122E-17  0.639E-01  0.639E-01
 -12.183  0.127E+00  0.133E-17  0.635E-01  0.635E-01
 -12.173  0.127E+00  0.146E-17  0.636E-01  0.636E-01
 -12.163  0.128E+00  0.162E-17  0.641E-01  0.641E-01
 -12.153  0.130E+00  0.182E-17  0.651E-01  0.651E-01
 -12.143  0.133E+00  0.203E-17  0.666E-01  0.666E-01
 -12.133  0.137E+00  0.228E-17  0.686E-01  0.686E-01
 -12.123  0.142E+00  0.254E-17  0.710E-01  0.710E-01
 -12.113  0.148E+00  0.283E-17  0.738E-01  0.738E-01
 -12.103  0.154E+00  0.313E-17  0.769E-01  0.769E-01
 -12.093  0.161E+00  0.345E-17  0.803E-01  0.803E-01
 -12.083  0.168E+00  0.376E-17  0.839E-01  0.839E-01
 -12.073  0.175E+00  0.408E-17  0.877E-01  0.877E-01
 -12.063  0.183E+00  0.438E-17  0.915E-01  0.915E-01
 -12.053  0.191E+00  0.468E-17  0.953E-01  0.953E-01
 -12.043  0.198E+00  0.494E-17  0.990E-01  0.990E-01
 -12.033  0.205E+00  0.518E-17  0.102E+00  0.102E+00
 -12.023  0.211E+00  0.538E-17  0.106E+00  0.106E+00
 -12.013  0.217E+00  0.554E-17  0.108E+00  0.108E+00
 -12.003  0.221E+00  0.565E-17  0.111E+00  0.111E+00
 -11.993  0.225E+00  0.571E-17  0.112E+00  0.112E+00
 -11.983  0.227E+00  0.572E-17  0.113E+00  0.113E+00
 -11.973  0.227E+00  0.567E-17  0.114E+00  0.114E+00
 -11.963  0.226E+00  0.558E-17  0.113E+00  0.113E+00
 -11.953  0.224E+00  0.543E-17  0.112E+00  0.112E+00
 -11.943  0.220E+00  0.524E-17  0.110E+00  0.110E+00
 -11.933  0.214E+00  0.501E-17  0.107E+00  0.107E+00
 -11.923  0.207E+00  0.474E-17  0.103E+00  0.103E+00
 -11.913  0.198E+00  0.444E-17  0.991E-01  0.991E-01
 -11.903  0.188E+00  0.413E-17  0.942E-01  0.942E-01
 -11.893  0.178E+00  0.379E-17  0.888E-01  0.888E-01
 -11.883  0.166E+00  0.346E-17  0.830E-01  0.830E-01
 -11.873  0.154E+00  0.312E-17  0.769E-01  0.769E-01
 -11.863  0.141E+00  0.278E-17  0.707E-01  0.707E-01
 -11.853  0.129E+00  0.246E-17  0.644E-01  0.644E-01
 -11.843  0.116E+00  0.216E-17  0.582E-01  0.582E-01
 -11.833  0.104E+00  0.187E-17  0.521E-01  0.521E-01
 -11.823  0.926E-01  0.161E-17  0.463E-01  0.463E-01
 -11.813  0.817E-01  0.137E-17  0.408E-01  0.408E-01
 -11.803  0.716E-01  0.115E-17  0.358E-01  0.358E-01
 -11.793  0.625E-01  0.964E-18  0.312E-01  0.312E-01
 -11.783  0.543E-01  0.800E-18  0.272E-01  0.272E-01
 -11.773  0.473E-01  0.660E-18  0.237E-01  0.237E-01
 -11.763  0.414E-01  0.542E-18  0.207E-01  0.207E-01
 -11.753  0.367E-01  0.445E-18  0.184E-01  0.184E-01
 -11.743  0.331E-01  0.366E-18  0.166E-01  0.166E-01
 -11.733  0.307E-01  0.304E-18  0.153E-01  0.153E-01
 -11.723  0.294E-01  0.258E-18  0.147E-01  0.147E-01
 -11.713  0.292E-01  0.224E-18  0.146E-01  0.146E-01
 -11.703  0.301E-01  0.202E-18  0.150E-01  0.150E-01
 -11.693  0.320E-01  0.190E-18  0.160E-01  0.160E-01
 -11.683  0.350E-01  0.186E-18  0.175E-01  0.175E-01
 -11.673  0.390E-01  0.189E-18  0.195E-01  0.195E-01
 -11.663  0.440E-01  0.198E-18  0.220E-01  0.220E-01
 -11.653  0.500E-01  0.212E-18  0.250E-01  0.250E-01
 -11.643  0.568E-01  0.230E-18  0.284E-01  0.284E-01
 -11.633  0.645E-01  0.251E-18  0.323E-01  0.323E-01
 -11.623  0.731E-01  0.274E-18  0.365E-01  0.365E-01
 -11.613  0.824E-01  0.299E-18  0.412E-01  0.412E-01
 -11.603  0.925E-01  0.324E-18  0.463E-01  0.463E-01
 -11.593  0.103E+00  0.351E-18  0.516E-01  0.516E-01
 -11.583  0.115E+00  0.377E-18  0.573E-01  0.573E-01
 -11.573  0.127E+00  0.404E-18  0.633E-01  0.633E-01
 -11.563  0.139E+00  0.430E-18  0.695E-01  0.695E-01
 -11.553  0.152E+00  0.457E-18  0.760E-01  0.760E-01
 -11.543  0.165E+00  0.483E-18  0.826E-01  0.826E-01
 -11.533  0.179E+00  0.509E-18  0.893E-01  0.893E-01
 -11.523  0.192E+00  0.536E-18  0.962E-01  0.962E-01
 -11.513  0.206E+00  0.564E-18  0.103E+00  0.103E+00
 -11.503  0.220E+00  0.593E-18  0.110E+00  0.110E+00
 -11.493  0.233E+00  0.625E-18  0.117E+00  0.117E+00
 -11.483  0.247E+00  0.659E-18  0.123E+00  0.123E+00
 -11.473  0.260E+00  0.696E-18  0.130E+00  0.130E+00
 -11.463  0.272E+00  0.736E-18  0.136E+00  0.136E+00
 -11.453  0.284E+00  0.779E-18  0.142E+00  0.142E+00
 -11.443  0.295E+00  0.826E-18  0.147E+00  0.147E+00
 -11.433  0.305E+00  0.875E-18  0.152E+00  0.152E+00
 -11.423  0.314E+00  0.926E-18  0.157E+00  0.157E+00
 -11.413  0.321E+00  0.978E-18  0.160E+00  0.160E+00
 -11.403  0.327E+00  0.103E-17  0.163E+00  0.163E+00
 -11.393  0.331E+00  0.108E-17  0.166E+00  0.166E+00
 -11.383  0.334E+00  0.113E-17  0.167E+00  0.167E+00
 -11.373  0.334E+00  0.117E-17  0.167E+00  0.167E+00
 -11.363  0.333E+00  0.121E-17  0.167E+00  0.167E+00
 -11.353  0.330E+00  0.124E-17  0.165E+00  0.165E+00
 -11.343  0.325E+00  0.126E-17  0.163E+00  0.163E+00
 -11.333  0.318E+00  0.128E-17  0.159E+00  0.159E+00
 -11.323  0.310E+00  0.128E-17  0.155E+00  0.155E+00
 -11.313  0.300E+00  0.127E-17  0.150E+00  0.150E+00
 -11.303  0.289E+00  0.125E-17  0.145E+00  0.145E+00
 -11.293  0.278E+00  0.122E-17  0.139E+00  0.139E+00
 -11.283  0.265E+00  0.119E-17  0.133E+00  0.133E+00
 -11.273  0.253E+00  0.114E-17  0.126E+00  0.126E+00
 -11.263  0.240E+00  0.109E-17  0.120E+00  0.120E+00
 -11.253  0.228E+00  0.103E-17  0.114E+00  0.114E+00
 -11.243  0.217E+00  0.966E-18  0.108E+00  0.108E+00
 -11.233  0.206E+00  0.902E-18  0.103E+00  0.103E+00
 -11.223  0.197E+00  0.837E-18  0.986E-01  0.986E-01
 -11.213  0.189E+00  0.773E-18  0.945E-01  0.945E-01
 -11.203  0.182E+00  0.712E-18  0.912E-01  0.912E-01
 -11.193  0.177E+00  0.654E-18  0.884E-01  0.884E-01
 -11.183  0.173E+00  0.599E-18  0.863E-01  0.863E-01
 -11.173  0.169E+00  0.550E-18  0.847E-01  0.847E-01
 -11.163  0.167E+00  0.505E-18  0.835E-01  0.835E-01
 -11.153  0.165E+00  0.464E-18  0.826E-01  0.826E-01
 -11.143  0.164E+00  0.428E-18  0.818E-01  0.818E-01
 -11.133  0.162E+00  0.397E-18  0.811E-01  0.811E-01
 -11.123  0.161E+00  0.368E-18  0.804E-01  0.804E-01
 -11.113  0.159E+00  0.343E-18  0.794E-01  0.794E-01
 -11.103  0.156E+00  0.320E-18  0.781E-01  0.781E-01
 -11.093  0.153E+00  0.299E-18  0.764E-01  0.764E-01
 -11.083  0.149E+00  0.280E-18  0.743E-01  0.743E-01
 -11.073  0.143E+00  0.261E-18  0.717E-01  0.717E-01
 -11.063  0.137E+00  0.243E-18  0.686E-01  0.686E-01
 -11.053  0.130E+00  0.226E-18  0.652E-01  0.652E-01
 -11.043  0.123E+00  0.209E-18  0.613E-01  0.613E-01
 -11.033  0.114E+00  0.193E-18  0.572E-01  0.572E-01
 -11.023  0.106E+00  0.177E-18  0.528E-01  0.528E-01
 -11.013  0.965E-01  0.162E-18  0.483E-01  0.483E-01
 -11.003  0.874E-01  0.148E-18  0.437E-01  0.437E-01
 -10.993  0.783E-01  0.136E-18  0.392E-01  0.392E-01
 -10.983  0.695E-01  0.125E-18  0.347E-01  0.347E-01
 -10.973  0.611E-01  0.118E-18  0.305E-01  0.305E-01
 -10.963  0.532E-01  0.114E-18  0.266E-01  0.266E-01
 -10.953  0.459E-01  0.116E-18  0.229E-01  0.229E-01
 -10.943  0.393E-01  0.123E-18  0.197E-01  0.197E-01
 -10.933  0.335E-01  0.138E-18  0.168E-01  0.168E-01
 -10.923  0.285E-01  0.162E-18  0.143E-01  0.143E-01
 -10.913  0.244E-01  0.199E-18  0.122E-01  0.122E-01
 -10.903  0.211E-01  0.251E-18  0.105E-01  0.105E-01
 -10.893  0.186E-01  0.322E-18  0.931E-02  0.931E-02
 -10.883  0.170E-01  0.415E-18  0.852E-02  0.852E-02
 -10.873  0.163E-01  0.535E-18  0.817E-02  0.817E-02
 -10.863  0.166E-01  0.687E-18  0.828E-02  0.828E-02
 -10.853  0.177E-01  0.877E-18  0.887E-02  0.887E-02
 -10.843  0.199E-01  0.111E-17  0.995E-02  0.995E-02
 -10.833  0.231E-01  0.139E-17  0.116E-01  0.116E-01
 -10.823  0.274E-01  0.173E-17  0.137E-01  0.137E-01
 -10.813  0.329E-01  0.213E-17  0.165E-01  0.165E-01
 -10.803  0.397E-01  0.259E-17  0.199E-01  0.199E-01
 -10.793  0.478E-01  0.311E-17  0.239E-01  0.239E-01
 -10.783  0.573E-01  0.371E-17  0.286E-01  0.286E-01
 -10.773  0.681E-01  0.437E-17  0.341E-01  0.341E-01
 -10.763  0.804E-01  0.510E-17  0.402E-01  0.402E-01
 -10.753  0.941E-01  0.588E-17  0.471E-01  0.471E-01
 -10.743  0.109E+00  0.671E-17  0.546E-01  0.546E-01
 -10.733  0.125E+00  0.757E-17  0.627E-01  0.627E-01
 -10.723  0.143E+00  0.846E-17  0.714E-01  0.714E-01
 -10.713  0.161E+00  0.935E-17  0.805E-01  0.805E-01
 -10.703  0.180E+00  0.102E-16  0.900E-01  0.900E-01
 -10.693  0.199E+00  0.111E-16  0.997E-01  0.997E-01
 -10.683  0.219E+00  0.118E-16  0.109E+00  0.109E+00
 -10.673  0.238E+00  0.125E-16  0.119E+00  0.119E+00
 -10.663  0.257E+00  0.131E-16  0.128E+00  0.128E+00
 -10.653  0.275E+00  0.136E-16  0.137E+00  0.137E+00
 -10.643  0.291E+00  0.140E-16  0.146E+00  0.146E+00
 -10.633  0.307E+00  0.142E-16  0.153E+00  0.153E+00
 -10.623  0.320E+00  0.143E-16  0.160E+00  0.160E+00
 -10.613  0.332E+00  0.142E-16  0.166E+00  0.166E+00
 -10.603  0.342E+00  0.140E-16  0.171E+00  0.171E+00
 -10.593  0.350E+00  0.137E-16  0.175E+00  0.175E+00
 -10.583  0.356E+00  0.132E-16  0.178E+00  0.178E+00
 -10.573  0.359E+00  0.127E-16  0.180E+00  0.180E+00
 -10.563  0.361E+00  0.121E-16  0.181E+00  0.181E+00
 -10.553  0.362E+00  0.114E-16  0.181E+00  0.181E+00
 -10.543  0.361E+00  0.106E-16  0.180E+00  0.180E+00
 -10.533  0.358E+00  0.989E-17  0.179E+00  0.179E+00
 -10.523  0.355E+00  0.914E-17  0.177E+00  0.177E+00
 -10.513  0.350E+00  0.841E-17  0.175E+00  0.175E+00
 -10.503  0.345E+00  0.771E-17  0.172E+00  0.172E+00
 -10.493  0.339E+00  0.705E-17  0.170E+00  0.170E+00
 -10.483  0.333E+00  0.662E-13  0.166E+00  0.166E+00
 -10.473  0.326E+00  0.139E-12  0.163E+00  0.163E+00
 -10.463  0.319E+00  0.290E-12  0.159E+00  0.159E+00
 -10.453  0.312E+00  0.596E-12  0.156E+00  0.156E+00
 -10.443  0.304E+00  0.121E-11  0.152E+00  0.152E+00
 -10.433  0.296E+00  0.244E-11  0.148E+00  0.148E+00
 -10.423  0.287E+00  0.487E-11  0.144E+00  0.144E+00
 -10.413  0.278E+00  0.959E-11  0.139E+00  0.139E+00
 -10.403  0.269E+00  0.187E-10  0.135E+00  0.135E+00
 -10.393  0.260E+00  0.367E-10  0.130E+00  0.130E+00
 -10.383  0.250E+00  0.702E-10  0.125E+00  0.125E+00
 -10.373  0.240E+00  0.133E-09  0.120E+00  0.120E+00
 -10.363  0.229E+00  0.248E-09  0.115E+00  0.115E+00
 -10.353  0.219E+00  0.460E-09  0.109E+00  0.109E+00
 -10.343  0.209E+00  0.842E-09  0.104E+00  0.104E+00
 -10.333  0.198E+00  0.153E-08  0.991E-01  0.991E-01
 -10.323  0.188E+00  0.274E-08  0.941E-01  0.941E-01
 -10.313  0.178E+00  0.486E-08  0.892E-01  0.892E-01
 -10.303  0.169E+00  0.853E-08  0.846E-01  0.846E-01
 -10.293  0.161E+00  0.148E-07  0.803E-01  0.803E-01
 -10.283  0.153E+00  0.255E-07  0.763E-01  0.763E-01
 -10.273  0.146E+00  0.433E-07  0.728E-01  0.728E-01
 -10.263  0.139E+00  0.730E-07  0.697E-01  0.697E-01
 -10.253  0.134E+00  0.122E-06  0.671E-01  0.671E-01
 -10.243  0.130E+00  0.201E-06  0.650E-01  0.650E-01
 -10.233  0.127E+00  0.328E-06  0.635E-01  0.635E-01
 -10.223  0.125E+00  0.529E-06  0.625E-01  0.625E-01
 -10.213  0.124E+00  0.847E-06  0.622E-01  0.622E-01
 -10.203  0.125E+00  0.134E-05  0.624E-01  0.624E-01
 -10.193  0.126E+00  0.210E-05  0.631E-01  0.631E-01
 -10.183  0.129E+00  0.326E-05  0.643E-01  0.643E-01
 -10.173  0.132E+00  0.501E-05  0.660E-01  0.660E-01
 -10.163  0.136E+00  0.761E-05  0.680E-01  0.680E-01
 -10.153  0.141E+00  0.115E-04  0.704E-01  0.704E-01
 -10.143  0.146E+00  0.171E-04  0.731E-01  0.731E-01
 -10.133  0.152E+00  0.252E-04  0.759E-01  0.759E-01
 -10.123  0.158E+00  0.369E-04  0.787E-01  0.787E-01
 -10.113  0.163E+00  0.535E-04  0.816E-01  0.816E-01
 -10.103  0.169E+00  0.767E-04  0.844E-01  0.844E-01
 -10.093  0.174E+00  0.109E-03  0.870E-01  0.870E-01
 -10.083  0.179E+00  0.153E-03  0.893E-01  0.893E-01
 -10.073  0.183E+00  0.214E-03  0.914E-01  0.914E-01
 -10.063  0.187E+00  0.295E-03  0.932E-01  0.932E-01
 -10.053  0.190E+00  0.404E-03  0.946E-01  0.946E-01
 -10.043  0.192E+00  0.549E-03  0.957E-01  0.957E-01
 -10.033  0.194E+00  0.737E-03  0.965E-01  0.965E-01
 -10.023  0.195E+00  0.982E-03  0.969E-01  0.969E-01
 -10.013  0.195E+00  0.130E-02  0.970E-01  0.970E-01
 -10.003  0.195E+00  0.170E-02  0.968E-01  0.968E-01
  -9.993  0.195E+00  0.220E-02  0.962E-01  0.962E-01
  -9.983  0.194E+00  0.283E-02  0.955E-01  0.955E-01
  -9.973  0.192E+00  0.360E-02  0.944E-01  0.944E-01
  -9.963  0.191E+00  0.455E-02  0.931E-01  0.931E-01
  -9.953  0.189E+00  0.569E-02  0.916E-01  0.916E-01
  -9.943  0.187E+00  0.706E-02  0.899E-01  0.899E-01
  -9.933  0.185E+00  0.869E-02  0.880E-01  0.880E-01
  -9.923  0.182E+00  0.106E-01  0.858E-01  0.858E-01
  -9.913  0.180E+00  0.128E-01  0.836E-01  0.836E-01
  -9.903  0.178E+00  0.154E-01  0.812E-01  0.812E-01
  -9.893  0.176E+00  0.182E-01  0.789E-01  0.789E-01
  -9.883  0.174E+00  0.215E-01  0.765E-01  0.765E-01
  -9.873  0.174E+00  0.251E-01  0.743E-01  0.743E-01
  -9.863  0.173E+00  0.291E-01  0.722E-01  0.722E-01
  -9.853  0.174E+00  0.333E-01  0.704E-01  0.704E-01
  -9.843  0.176E+00  0.379E-01  0.691E-01  0.691E-01
  -9.833  0.179E+00  0.428E-01  0.682E-01  0.682E-01
  -9.823  0.184E+00  0.479E-01  0.679E-01  0.679E-01
  -9.813  0.190E+00  0.531E-01  0.683E-01  0.683E-01
  -9.803  0.197E+00  0.584E-01  0.694E-01  0.694E-01
  -9.793  0.206E+00  0.638E-01  0.712E-01  0.712E-01
  -9.783  0.217E+00  0.690E-01  0.738E-01  0.738E-01
  -9.773  0.229E+00  0.742E-01  0.772E-01  0.772E-01
  -9.763  0.242E+00  0.791E-01  0.814E-01  0.814E-01
  -9.753  0.256E+00  0.837E-01  0.863E-01  0.863E-01
  -9.743  0.272E+00  0.880E-01  0.918E-01  0.918E-01
  -9.733  0.288E+00  0.920E-01  0.978E-01  0.978E-01
  -9.723  0.304E+00  0.957E-01  0.104E+00  0.104E+00
  -9.713  0.321E+00  0.990E-01  0.111E+00  0.111E+00
  -9.703  0.338E+00  0.102E+00  0.118E+00  0.118E+00
  -9.693  0.354E+00  0.105E+00  0.125E+00  0.125E+00
  -9.683  0.370E+00  0.107E+00  0.132E+00  0.132E+00
  -9.673  0.386E+00  0.109E+00  0.138E+00  0.138E+00
  -9.663  0.400E+00  0.112E+00  0.144E+00  0.144E+00
  -9.653  0.414E+00  0.114E+00  0.150E+00  0.150E+00
  -9.643  0.426E+00  0.116E+00  0.155E+00  0.155E+00
  -9.633  0.437E+00  0.119E+00  0.159E+00  0.159E+00
  -9.623  0.447E+00  0.121E+00  0.163E+00  0.163E+00
  -9.613  0.455E+00  0.124E+00  0.166E+00  0.166E+00
  -9.603  0.462E+00  0.126E+00  0.168E+00  0.168E+00
  -9.593  0.468E+00  0.129E+00  0.169E+00  0.169E+00
  -9.583  0.472E+00  0.132E+00  0.170E+00  0.170E+00
  -9.573  0.476E+00  0.135E+00  0.170E+00  0.170E+00
  -9.563  0.478E+00  0.137E+00  0.170E+00  0.170E+00
  -9.553  0.479E+00  0.140E+00  0.170E+00  0.170E+00
  -9.543  0.480E+00  0.141E+00  0.169E+00  0.169E+00
  -9.533  0.479E+00  0.143E+00  0.168E+00  0.168E+00
  -9.523  0.478E+00  0.144E+00  0.167E+00  0.167E+00
  -9.513  0.477E+00  0.144E+00  0.167E+00  0.167E+00
  -9.503  0.475E+00  0.143E+00  0.166E+00  0.166E+00
  -9.493  0.472E+00  0.142E+00  0.165E+00  0.165E+00
  -9.483  0.469E+00  0.140E+00  0.165E+00  0.165E+00
  -9.473  0.466E+00  0.137E+00  0.164E+00  0.164E+00
  -9.463  0.462E+00  0.134E+00  0.164E+00  0.164E+00
  -9.453  0.458E+00  0.130E+00  0.164E+00  0.164E+00
  -9.443  0.453E+00  0.126E+00  0.164E+00  0.164E+00
  -9.433  0.448E+00  0.122E+00  0.163E+00  0.163E+00
  -9.423  0.442E+00  0.117E+00  0.162E+00  0.162E+00
  -9.413  0.435E+00  0.113E+00  0.161E+00  0.161E+00
  -9.403  0.428E+00  0.109E+00  0.159E+00  0.159E+00
  -9.393  0.421E+00  0.106E+00  0.157E+00  0.157E+00
  -9.383  0.413E+00  0.104E+00  0.154E+00  0.154E+00
  -9.373  0.404E+00  0.102E+00  0.151E+00  0.151E+00
  -9.363  0.396E+00  0.102E+00  0.147E+00  0.147E+00
  -9.353  0.388E+00  0.102E+00  0.143E+00  0.143E+00
  -9.343  0.380E+00  0.104E+00  0.138E+00  0.138E+00
  -9.333  0.373E+00  0.107E+00  0.133E+00  0.133E+00
  -9.323  0.366E+00  0.110E+00  0.128E+00  0.128E+00
  -9.313  0.360E+00  0.115E+00  0.122E+00  0.122E+00
  -9.303  0.355E+00  0.120E+00  0.117E+00  0.117E+00
  -9.293  0.351E+00  0.126E+00  0.112E+00  0.112E+00
  -9.283  0.348E+00  0.133E+00  0.108E+00  0.108E+00
  -9.273  0.347E+00  0.139E+00  0.104E+00  0.104E+00
  -9.263  0.346E+00  0.145E+00  0.100E+00  0.100E+00
  -9.253  0.347E+00  0.151E+00  0.980E-01  0.980E-01
  -9.243  0.350E+00  0.157E+00  0.965E-01  0.965E-01
  -9.233  0.353E+00  0.161E+00  0.958E-01  0.958E-01
  -9.223  0.358E+00  0.165E+00  0.963E-01  0.963E-01
  -9.213  0.364E+00  0.168E+00  0.977E-01  0.977E-01
  -9.203  0.370E+00  0.170E+00  0.100E+00  0.100E+00
  -9.193  0.378E+00  0.171E+00  0.104E+00  0.104E+00
  -9.183  0.386E+00  0.170E+00  0.108E+00  0.108E+00
  -9.173  0.396E+00  0.169E+00  0.113E+00  0.113E+00
  -9.163  0.405E+00  0.167E+00  0.119E+00  0.119E+00
  -9.153  0.415E+00  0.164E+00  0.126E+00  0.126E+00
  -9.143  0.426E+00  0.160E+00  0.133E+00  0.133E+00
  -9.133  0.436E+00  0.156E+00  0.140E+00  0.140E+00
  -9.123  0.446E+00  0.152E+00  0.147E+00  0.147E+00
  -9.113  0.455E+00  0.147E+00  0.154E+00  0.154E+00
  -9.103  0.464E+00  0.141E+00  0.161E+00  0.161E+00
  -9.093  0.472E+00  0.136E+00  0.168E+00  0.168E+00
  -9.083  0.478E+00  0.131E+00  0.174E+00  0.174E+00
  -9.073  0.483E+00  0.125E+00  0.179E+00  0.179E+00
  -9.063  0.486E+00  0.120E+00  0.183E+00  0.183E+00
  -9.053  0.488E+00  0.115E+00  0.187E+00  0.187E+00
  -9.043  0.489E+00  0.109E+00  0.190E+00  0.190E+00
  -9.033  0.487E+00  0.104E+00  0.191E+00  0.191E+00
  -9.023  0.485E+00  0.996E-01  0.192E+00  0.192E+00
  -9.013  0.481E+00  0.952E-01  0.193E+00  0.193E+00
  -9.003  0.476E+00  0.911E-01  0.192E+00  0.192E+00
  -8.993  0.471E+00  0.876E-01  0.191E+00  0.191E+00
  -8.983  0.465E+00  0.846E-01  0.190E+00  0.190E+00
  -8.973  0.459E+00  0.824E-01  0.188E+00  0.188E+00
  -8.963  0.454E+00  0.810E-01  0.187E+00  0.187E+00
  -8.953  0.450E+00  0.806E-01  0.185E+00  0.185E+00
  -8.943  0.446E+00  0.812E-01  0.183E+00  0.183E+00
  -8.933  0.444E+00  0.830E-01  0.181E+00  0.181E+00
  -8.923  0.443E+00  0.859E-01  0.179E+00  0.179E+00
  -8.913  0.443E+00  0.900E-01  0.177E+00  0.177E+00
  -8.903  0.445E+00  0.953E-01  0.175E+00  0.175E+00
  -8.893  0.447E+00  0.102E+00  0.173E+00  0.173E+00
  -8.883  0.451E+00  0.109E+00  0.171E+00  0.171E+00
  -8.873  0.456E+00  0.118E+00  0.169E+00  0.169E+00
  -8.863  0.462E+00  0.127E+00  0.168E+00  0.168E+00
  -8.853  0.469E+00  0.136E+00  0.166E+00  0.166E+00
  -8.843  0.476E+00  0.146E+00  0.165E+00  0.165E+00
  -8.833  0.483E+00  0.156E+00  0.163E+00  0.163E+00
  -8.823  0.490E+00  0.166E+00  0.162E+00  0.162E+00
  -8.813  0.498E+00  0.176E+00  0.161E+00  0.161E+00
  -8.803  0.505E+00  0.185E+00  0.160E+00  0.160E+00
  -8.793  0.512E+00  0.192E+00  0.160E+00  0.160E+00
  -8.783  0.519E+00  0.199E+00  0.160E+00  0.160E+00
  -8.773  0.525E+00  0.204E+00  0.161E+00  0.161E+00
  -8.763  0.532E+00  0.207E+00  0.162E+00  0.162E+00
  -8.753  0.538E+00  0.209E+00  0.164E+00  0.164E+00
  -8.743  0.544E+00  0.209E+00  0.167E+00  0.167E+00
  -8.733  0.550E+00  0.208E+00  0.171E+00  0.171E+00
  -8.723  0.557E+00  0.205E+00  0.176E+00  0.176E+00
  -8.713  0.563E+00  0.200E+00  0.182E+00  0.182E+00
  -8.703  0.570E+00  0.194E+00  0.188E+00  0.188E+00
  -8.693  0.577E+00  0.186E+00  0.195E+00  0.195E+00
  -8.683  0.583E+00  0.178E+00  0.203E+00  0.203E+00
  -8.673  0.590E+00  0.169E+00  0.210E+00  0.210E+00
  -8.663  0.596E+00  0.160E+00  0.218E+00  0.218E+00
  -8.653  0.601E+00  0.150E+00  0.225E+00  0.225E+00
  -8.643  0.606E+00  0.141E+00  0.232E+00  0.232E+00
  -8.633  0.609E+00  0.132E+00  0.238E+00  0.238E+00
  -8.623  0.611E+00  0.124E+00  0.243E+00  0.243E+00
  -8.613  0.610E+00  0.117E+00  0.247E+00  0.247E+00
  -8.603  0.608E+00  0.110E+00  0.249E+00  0.249E+00
  -8.593  0.602E+00  0.105E+00  0.249E+00  0.249E+00
  -8.583  0.594E+00  0.100E+00  0.247E+00  0.247E+00
  -8.573  0.584E+00  0.963E-01  0.244E+00  0.244E+00
  -8.563  0.570E+00  0.935E-01  0.238E+00  0.238E+00
  -8.553  0.553E+00  0.915E-01  0.231E+00  0.231E+00
  -8.543  0.534E+00  0.901E-01  0.222E+00  0.222E+00
  -8.533  0.513E+00  0.892E-01  0.212E+00  0.212E+00
  -8.523  0.489E+00  0.887E-01  0.200E+00  0.200E+00
  -8.513  0.464E+00  0.885E-01  0.188E+00  0.188E+00
  -8.503  0.438E+00  0.884E-01  0.175E+00  0.175E+00
  -8.493  0.412E+00  0.883E-01  0.162E+00  0.162E+00
  -8.483  0.386E+00  0.883E-01  0.149E+00  0.149E+00
  -8.473  0.360E+00  0.882E-01  0.136E+00  0.136E+00
  -8.463  0.337E+00  0.881E-01  0.124E+00  0.124E+00
  -8.453  0.315E+00  0.881E-01  0.114E+00  0.114E+00
  -8.443  0.296E+00  0.881E-01  0.104E+00  0.104E+00
  -8.433  0.280E+00  0.884E-01  0.960E-01  0.960E-01
  -8.423  0.268E+00  0.890E-01  0.897E-01  0.897E-01
  -8.413  0.260E+00  0.900E-01  0.850E-01  0.850E-01
  -8.403  0.256E+00  0.917E-01  0.821E-01  0.821E-01
  -8.393  0.256E+00  0.940E-01  0.809E-01  0.809E-01
  -8.383  0.260E+00  0.971E-01  0.815E-01  0.815E-01
  -8.373  0.268E+00  0.101E+00  0.836E-01  0.836E-01
  -8.363  0.280E+00  0.106E+00  0.871E-01  0.871E-01
  -8.353  0.295E+00  0.111E+00  0.918E-01  0.918E-01
  -8.343  0.313E+00  0.118E+00  0.975E-01  0.975E-01
  -8.333  0.333E+00  0.125E+00  0.104E+00  0.104E+00
  -8.323  0.354E+00  0.132E+00  0.111E+00  0.111E+00
  -8.313  0.376E+00  0.140E+00  0.118E+00  0.118E+00
  -8.303  0.397E+00  0.149E+00  0.124E+00  0.124E+00
  -8.293  0.418E+00  0.157E+00  0.131E+00  0.131E+00
  -8.283  0.438E+00  0.165E+00  0.136E+00  0.136E+00
  -8.273  0.455E+00  0.173E+00  0.141E+00  0.141E+00
  -8.263  0.470E+00  0.180E+00  0.145E+00  0.145E+00
  -8.253  0.481E+00  0.187E+00  0.147E+00  0.147E+00
  -8.243  0.489E+00  0.193E+00  0.148E+00  0.148E+00
  -8.233  0.494E+00  0.199E+00  0.147E+00  0.147E+00
  -8.223  0.494E+00  0.204E+00  0.145E+00  0.145E+00
  -8.213  0.492E+00  0.208E+00  0.142E+00  0.142E+00
  -8.203  0.486E+00  0.211E+00  0.138E+00  0.138E+00
  -8.193  0.478E+00  0.213E+00  0.132E+00  0.132E+00
  -8.183  0.467E+00  0.215E+00  0.126E+00  0.126E+00
  -8.173  0.454E+00  0.216E+00  0.119E+00  0.119E+00
  -8.163  0.440E+00  0.216E+00  0.112E+00  0.112E+00
  -8.153  0.425E+00  0.215E+00  0.105E+00  0.105E+00
  -8.143  0.410E+00  0.214E+00  0.979E-01  0.979E-01
  -8.133  0.395E+00  0.212E+00  0.914E-01  0.914E-01
  -8.123  0.380E+00  0.209E+00  0.855E-01  0.855E-01
  -8.113  0.366E+00  0.205E+00  0.804E-01  0.804E-01
  -8.103  0.353E+00  0.201E+00  0.763E-01  0.763E-01
  -8.093  0.342E+00  0.195E+00  0.733E-01  0.733E-01
  -8.083  0.331E+00  0.189E+00  0.713E-01  0.713E-01
  -8.073  0.322E+00  0.181E+00  0.705E-01  0.705E-01
  -8.063  0.315E+00  0.173E+00  0.708E-01  0.708E-01
  -8.053  0.309E+00  0.164E+00  0.720E-01  0.720E-01
  -8.043  0.304E+00  0.155E+00  0.743E-01  0.743E-01
  -8.033  0.300E+00  0.145E+00  0.773E-01  0.773E-01
  -8.023  0.297E+00  0.135E+00  0.811E-01  0.811E-01
  -8.013  0.296E+00  0.125E+00  0.854E-01  0.854E-01
  -8.003  0.295E+00  0.115E+00  0.900E-01  0.900E-01
  -7.993  0.295E+00  0.105E+00  0.950E-01  0.950E-01
  -7.983  0.296E+00  0.960E-01  0.100E+00  0.100E+00
  -7.973  0.298E+00  0.874E-01  0.105E+00  0.105E+00
  -7.963  0.300E+00  0.798E-01  0.110E+00  0.110E+00
  -7.953  0.303E+00  0.731E-01  0.115E+00  0.115E+00
  -7.943  0.306E+00  0.675E-01  0.119E+00  0.119E+00
  -7.933  0.310E+00  0.630E-01  0.123E+00  0.123E+00
  -7.923  0.315E+00  0.598E-01  0.127E+00  0.127E+00
  -7.913  0.320E+00  0.577E-01  0.131E+00  0.131E+00
  -7.903  0.325E+00  0.568E-01  0.134E+00  0.134E+00
  -7.893  0.331E+00  0.569E-01  0.137E+00  0.137E+00
  -7.883  0.338E+00  0.580E-01  0.140E+00  0.140E+00
  -7.873  0.344E+00  0.601E-01  0.142E+00  0.142E+00
  -7.863  0.351E+00  0.628E-01  0.144E+00  0.144E+00
  -7.853  0.358E+00  0.663E-01  0.146E+00  0.146E+00
  -7.843  0.364E+00  0.702E-01  0.147E+00  0.147E+00
  -7.833  0.371E+00  0.745E-01  0.148E+00  0.148E+00
  -7.823  0.376E+00  0.790E-01  0.149E+00  0.149E+00
  -7.813  0.381E+00  0.837E-01  0.149E+00  0.149E+00
  -7.803  0.385E+00  0.885E-01  0.148E+00  0.148E+00
  -7.793  0.387E+00  0.933E-01  0.147E+00  0.147E+00
  -7.783  0.388E+00  0.982E-01  0.145E+00  0.145E+00
  -7.773  0.388E+00  0.103E+00  0.143E+00  0.143E+00
  -7.763  0.386E+00  0.108E+00  0.139E+00  0.139E+00
  -7.753  0.383E+00  0.113E+00  0.135E+00  0.135E+00
  -7.743  0.379E+00  0.118E+00  0.130E+00  0.130E+00
  -7.733  0.373E+00  0.123E+00  0.125E+00  0.125E+00
  -7.723  0.366E+00  0.129E+00  0.119E+00  0.119E+00
  -7.713  0.359E+00  0.135E+00  0.112E+00  0.112E+00
  -7.703  0.351E+00  0.141E+00  0.105E+00  0.105E+00
  -7.693  0.342E+00  0.148E+00  0.972E-01  0.972E-01
  -7.683  0.334E+00  0.155E+00  0.895E-01  0.895E-01
  -7.673  0.326E+00  0.162E+00  0.817E-01  0.817E-01
  -7.663  0.318E+00  0.170E+00  0.740E-01  0.740E-01
  -7.653  0.311E+00  0.178E+00  0.666E-01  0.666E-01
  -7.643  0.305E+00  0.186E+00  0.594E-01  0.594E-01
  -7.633  0.299E+00  0.193E+00  0.528E-01  0.528E-01
  -7.623  0.294E+00  0.201E+00  0.466E-01  0.466E-01
  -7.613  0.289E+00  0.207E+00  0.412E-01  0.412E-01
  -7.603  0.286E+00  0.213E+00  0.364E-01  0.364E-01
  -7.593  0.283E+00  0.218E+00  0.325E-01  0.325E-01
  -7.583  0.280E+00  0.221E+00  0.293E-01  0.293E-01
  -7.573  0.277E+00  0.224E+00  0.270E-01  0.270E-01
  -7.563  0.275E+00  0.224E+00  0.255E-01  0.255E-01
  -7.553  0.274E+00  0.224E+00  0.249E-01  0.249E-01
  -7.543  0.272E+00  0.222E+00  0.251E-01  0.251E-01
  -7.533  0.272E+00  0.219E+00  0.262E-01  0.262E-01
  -7.523  0.271E+00  0.215E+00  0.281E-01  0.281E-01
  -7.513  0.271E+00  0.210E+00  0.307E-01  0.307E-01
  -7.503  0.272E+00  0.204E+00  0.341E-01  0.341E-01
  -7.493  0.274E+00  0.198E+00  0.381E-01  0.381E-01
  -7.483  0.277E+00  0.192E+00  0.428E-01  0.428E-01
  -7.473  0.282E+00  0.186E+00  0.481E-01  0.481E-01
  -7.463  0.287E+00  0.180E+00  0.538E-01  0.538E-01
  -7.453  0.295E+00  0.175E+00  0.600E-01  0.600E-01
  -7.443  0.303E+00  0.170E+00  0.665E-01  0.665E-01
  -7.433  0.313E+00  0.167E+00  0.733E-01  0.733E-01
  -7.423  0.325E+00  0.164E+00  0.803E-01  0.803E-01
  -7.413  0.337E+00  0.163E+00  0.874E-01  0.874E-01
  -7.403  0.351E+00  0.162E+00  0.945E-01  0.945E-01
  -7.393  0.365E+00  0.162E+00  0.102E+00  0.102E+00
  -7.383  0.379E+00  0.162E+00  0.108E+00  0.108E+00
  -7.373  0.394E+00  0.163E+00  0.115E+00  0.115E+00
  -7.363  0.408E+00  0.164E+00  0.122E+00  0.122E+00
  -7.353  0.421E+00  0.165E+00  0.128E+00  0.128E+00
  -7.343  0.433E+00  0.166E+00  0.134E+00  0.134E+00
  -7.333  0.443E+00  0.165E+00  0.139E+00  0.139E+00
  -7.323  0.452E+00  0.164E+00  0.144E+00  0.144E+00
  -7.313  0.459E+00  0.162E+00  0.148E+00  0.148E+00
  -7.303  0.464E+00  0.159E+00  0.152E+00  0.152E+00
  -7.293  0.466E+00  0.155E+00  0.156E+00  0.156E+00
  -7.283  0.466E+00  0.150E+00  0.158E+00  0.158E+00
  -7.273  0.464E+00  0.143E+00  0.160E+00  0.160E+00
  -7.263  0.459E+00  0.136E+00  0.162E+00  0.162E+00
  -7.253  0.451E+00  0.127E+00  0.162E+00  0.162E+00
  -7.243  0.442E+00  0.119E+00  0.162E+00  0.162E+00
  -7.233  0.430E+00  0.109E+00  0.160E+00  0.160E+00
  -7.223  0.417E+00  0.999E-01  0.158E+00  0.158E+00
  -7.213  0.402E+00  0.906E-01  0.156E+00  0.156E+00
  -7.203  0.385E+00  0.815E-01  0.152E+00  0.152E+00
  -7.193  0.367E+00  0.729E-01  0.147E+00  0.147E+00
  -7.183  0.348E+00  0.649E-01  0.142E+00  0.142E+00
  -7.173  0.329E+00  0.577E-01  0.135E+00  0.135E+00
  -7.163  0.309E+00  0.515E-01  0.129E+00  0.129E+00
  -7.153  0.289E+00  0.463E-01  0.121E+00  0.121E+00
  -7.143  0.269E+00  0.422E-01  0.113E+00  0.113E+00
  -7.133  0.250E+00  0.393E-01  0.105E+00  0.105E+00
  -7.123  0.231E+00  0.377E-01  0.969E-01  0.969E-01
  -7.113  0.214E+00  0.373E-01  0.885E-01  0.885E-01
  -7.103  0.198E+00  0.381E-01  0.801E-01  0.801E-01
  -7.093  0.184E+00  0.402E-01  0.719E-01  0.719E-01
  -7.083  0.172E+00  0.435E-01  0.640E-01  0.640E-01
  -7.073  0.161E+00  0.480E-01  0.565E-01  0.565E-01
  -7.063  0.152E+00  0.536E-01  0.494E-01  0.494E-01
  -7.053  0.146E+00  0.604E-01  0.428E-01  0.428E-01
  -7.043  0.142E+00  0.682E-01  0.368E-01  0.368E-01
  -7.033  0.140E+00  0.770E-01  0.314E-01  0.314E-01
  -7.023  0.140E+00  0.866E-01  0.267E-01  0.267E-01
  -7.013  0.142E+00  0.970E-01  0.225E-01  0.225E-01
  -7.003  0.146E+00  0.108E+00  0.189E-01  0.189E-01
  -6.993  0.151E+00  0.120E+00  0.159E-01  0.159E-01
  -6.983  0.159E+00  0.131E+00  0.135E-01  0.135E-01
  -6.973  0.167E+00  0.144E+00  0.117E-01  0.117E-01
  -6.963  0.177E+00  0.156E+00  0.104E-01  0.104E-01
  -6.953  0.187E+00  0.168E+00  0.960E-02  0.960E-02
  -6.943  0.198E+00  0.180E+00  0.931E-02  0.931E-02
  -6.933  0.210E+00  0.191E+00  0.952E-02  0.952E-02
  -6.923  0.222E+00  0.202E+00  0.102E-01  0.102E-01
  -6.913  0.235E+00  0.212E+00  0.114E-01  0.114E-01
  -6.903  0.247E+00  0.221E+00  0.130E-01  0.130E-01
  -6.893  0.260E+00  0.229E+00  0.152E-01  0.152E-01
  -6.883  0.272E+00  0.237E+00  0.178E-01  0.178E-01
  -6.873  0.285E+00  0.243E+00  0.209E-01  0.209E-01
  -6.863  0.297E+00  0.248E+00  0.245E-01  0.245E-01
  -6.853  0.309E+00  0.252E+00  0.285E-01  0.285E-01
  -6.843  0.321E+00  0.255E+00  0.330E-01  0.330E-01
  -6.833  0.333E+00  0.257E+00  0.379E-01  0.379E-01
  -6.823  0.345E+00  0.259E+00  0.432E-01  0.432E-01
  -6.813  0.356E+00  0.259E+00  0.488E-01  0.488E-01
  -6.803  0.367E+00  0.258E+00  0.547E-01  0.547E-01
  -6.793  0.378E+00  0.256E+00  0.607E-01  0.607E-01
  -6.783  0.388E+00  0.254E+00  0.669E-01  0.669E-01
  -6.773  0.397E+00  0.251E+00  0.731E-01  0.731E-01
  -6.763  0.405E+00  0.247E+00  0.793E-01  0.793E-01
  -6.753  0.413E+00  0.242E+00  0.853E-01  0.853E-01
  -6.743  0.419E+00  0.236E+00  0.912E-01  0.912E-01
  -6.733  0.423E+00  0.230E+00  0.967E-01  0.967E-01
  -6.723  0.426E+00  0.223E+00  0.102E+00  0.102E+00
  -6.713  0.428E+00  0.215E+00  0.107E+00  0.107E+00
  -6.703  0.428E+00  0.206E+00  0.111E+00  0.111E+00
  -6.693  0.427E+00  0.197E+00  0.115E+00  0.115E+00
  -6.683  0.424E+00  0.188E+00  0.118E+00  0.118E+00
  -6.673  0.420E+00  0.179E+00  0.121E+00  0.121E+00
  -6.663  0.414E+00  0.169E+00  0.123E+00  0.123E+00
  -6.653  0.408E+00  0.160E+00  0.124E+00  0.124E+00
  -6.643  0.401E+00  0.150E+00  0.125E+00  0.125E+00
  -6.633  0.393E+00  0.142E+00  0.125E+00  0.125E+00
  -6.623  0.385E+00  0.134E+00  0.125E+00  0.125E+00
  -6.613  0.377E+00  0.128E+00  0.125E+00  0.125E+00
  -6.603  0.369E+00  0.122E+00  0.123E+00  0.123E+00
  -6.593  0.361E+00  0.118E+00  0.121E+00  0.121E+00
  -6.583  0.354E+00  0.115E+00  0.119E+00  0.119E+00
  -6.573  0.348E+00  0.114E+00  0.117E+00  0.117E+00
  -6.563  0.342E+00  0.114E+00  0.114E+00  0.114E+00
  -6.553  0.336E+00  0.116E+00  0.110E+00  0.110E+00
  -6.543  0.332E+00  0.118E+00  0.107E+00  0.107E+00
  -6.533  0.328E+00  0.122E+00  0.103E+00  0.103E+00
  -6.523  0.324E+00  0.127E+00  0.987E-01  0.987E-01
  -6.513  0.320E+00  0.131E+00  0.945E-01  0.945E-01
  -6.503  0.317E+00  0.137E+00  0.901E-01  0.901E-01
  -6.493  0.313E+00  0.142E+00  0.857E-01  0.857E-01
  -6.483  0.309E+00  0.146E+00  0.812E-01  0.812E-01
  -6.473  0.304E+00  0.150E+00  0.767E-01  0.767E-01
  -6.463  0.298E+00  0.153E+00  0.723E-01  0.723E-01
  -6.453  0.291E+00  0.155E+00  0.678E-01  0.678E-01
  -6.443  0.283E+00  0.156E+00  0.635E-01  0.635E-01
  -6.433  0.273E+00  0.155E+00  0.593E-01  0.593E-01
  -6.423  0.263E+00  0.153E+00  0.552E-01  0.552E-01
  -6.413  0.251E+00  0.149E+00  0.512E-01  0.512E-01
  -6.403  0.239E+00  0.144E+00  0.475E-01  0.475E-01
  -6.393  0.226E+00  0.138E+00  0.441E-01  0.441E-01
  -6.383  0.212E+00  0.130E+00  0.409E-01  0.409E-01
  -6.373  0.198E+00  0.122E+00  0.381E-01  0.381E-01
  -6.363  0.185E+00  0.113E+00  0.356E-01  0.356E-01
  -6.353  0.171E+00  0.104E+00  0.336E-01  0.336E-01
  -6.343  0.159E+00  0.950E-01  0.320E-01  0.320E-01
  -6.333  0.148E+00  0.859E-01  0.309E-01  0.309E-01
  -6.323  0.138E+00  0.771E-01  0.303E-01  0.303E-01
  -6.313  0.129E+00  0.688E-01  0.302E-01  0.302E-01
  -6.303  0.123E+00  0.613E-01  0.306E-01  0.306E-01
  -6.293  0.118E+00  0.548E-01  0.315E-01  0.315E-01
  -6.283  0.115E+00  0.493E-01  0.329E-01  0.329E-01
  -6.273  0.114E+00  0.450E-01  0.347E-01  0.347E-01
  -6.263  0.116E+00  0.420E-01  0.370E-01  0.370E-01
  -6.253  0.119E+00  0.404E-01  0.395E-01  0.395E-01
  -6.243  0.125E+00  0.402E-01  0.424E-01  0.424E-01
  -6.233  0.132E+00  0.416E-01  0.454E-01  0.454E-01
  -6.223  0.142E+00  0.446E-01  0.486E-01  0.486E-01
  -6.213  0.153E+00  0.493E-01  0.518E-01  0.518E-01
  -6.203  0.166E+00  0.556E-01  0.550E-01  0.550E-01
  -6.193  0.180E+00  0.635E-01  0.581E-01  0.581E-01
  -6.183  0.195E+00  0.731E-01  0.611E-01  0.611E-01
  -6.173  0.212E+00  0.842E-01  0.638E-01  0.638E-01
  -6.163  0.229E+00  0.969E-01  0.662E-01  0.662E-01
  -6.153  0.248E+00  0.111E+00  0.683E-01  0.683E-01
  -6.143  0.266E+00  0.126E+00  0.701E-01  0.701E-01
  -6.133  0.285E+00  0.142E+00  0.715E-01  0.715E-01
  -6.123  0.304E+00  0.159E+00  0.725E-01  0.725E-01
  -6.113  0.323E+00  0.177E+00  0.732E-01  0.732E-01
  -6.103  0.342E+00  0.195E+00  0.735E-01  0.735E-01
  -6.093  0.359E+00  0.212E+00  0.735E-01  0.735E-01
  -6.083  0.376E+00  0.229E+00  0.733E-01  0.733E-01
  -6.073  0.391E+00  0.245E+00  0.728E-01  0.728E-01
  -6.063  0.405E+00  0.260E+00  0.722E-01  0.722E-01
  -6.053  0.417E+00  0.274E+00  0.714E-01  0.714E-01
  -6.043  0.426E+00  0.285E+00  0.705E-01  0.705E-01
  -6.033  0.434E+00  0.295E+00  0.696E-01  0.696E-01
  -6.023  0.440E+00  0.302E+00  0.687E-01  0.687E-01
  -6.013  0.443E+00  0.308E+00  0.678E-01  0.678E-01
  -6.003  0.445E+00  0.311E+00  0.670E-01  0.670E-01
  -5.993  0.444E+00  0.312E+00  0.662E-01  0.662E-01
  -5.983  0.441E+00  0.310E+00  0.655E-01  0.655E-01
  -5.973  0.437E+00  0.308E+00  0.649E-01  0.649E-01
  -5.963  0.432E+00  0.303E+00  0.644E-01  0.644E-01
  -5.953  0.425E+00  0.297E+00  0.639E-01  0.639E-01
  -5.943  0.418E+00  0.291E+00  0.635E-01  0.635E-01
  -5.933  0.410E+00  0.283E+00  0.632E-01  0.632E-01
  -5.923  0.402E+00  0.276E+00  0.629E-01  0.629E-01
  -5.913  0.393E+00  0.268E+00  0.627E-01  0.627E-01
  -5.903  0.385E+00  0.260E+00  0.624E-01  0.624E-01
  -5.893  0.377E+00  0.252E+00  0.622E-01  0.622E-01
  -5.883  0.369E+00  0.245E+00  0.619E-01  0.619E-01
  -5.873  0.361E+00  0.238E+00  0.616E-01  0.616E-01
  -5.863  0.354E+00  0.231E+00  0.612E-01  0.612E-01
  -5.853  0.346E+00  0.225E+00  0.608E-01  0.608E-01
  -5.843  0.339E+00  0.218E+00  0.603E-01  0.603E-01
  -5.833  0.331E+00  0.211E+00  0.597E-01  0.597E-01
  -5.823  0.323E+00  0.205E+00  0.589E-01  0.589E-01
  -5.813  0.314E+00  0.198E+00  0.581E-01  0.581E-01
  -5.803  0.305E+00  0.191E+00  0.571E-01  0.571E-01
  -5.793  0.295E+00  0.184E+00  0.559E-01  0.559E-01
  -5.783  0.285E+00  0.176E+00  0.546E-01  0.546E-01
  -5.773  0.275E+00  0.168E+00  0.531E-01  0.531E-01
  -5.763  0.264E+00  0.161E+00  0.515E-01  0.515E-01
  -5.753  0.252E+00  0.153E+00  0.497E-01  0.497E-01
  -5.743  0.241E+00  0.146E+00  0.478E-01  0.478E-01
  -5.733  0.230E+00  0.139E+00  0.458E-01  0.458E-01
  -5.723  0.220E+00  0.132E+00  0.438E-01  0.438E-01
  -5.713  0.210E+00  0.127E+00  0.416E-01  0.416E-01
  -5.703  0.201E+00  0.123E+00  0.394E-01  0.394E-01
  -5.693  0.194E+00  0.119E+00  0.372E-01  0.372E-01
  -5.683  0.187E+00  0.117E+00  0.349E-01  0.349E-01
  -5.673  0.182E+00  0.117E+00  0.327E-01  0.327E-01
  -5.663  0.178E+00  0.117E+00  0.305E-01  0.305E-01
  -5.653  0.176E+00  0.119E+00  0.284E-01  0.284E-01
  -5.643  0.175E+00  0.122E+00  0.263E-01  0.263E-01
  -5.633  0.174E+00  0.126E+00  0.243E-01  0.243E-01
  -5.623  0.175E+00  0.130E+00  0.223E-01  0.223E-01
  -5.613  0.176E+00  0.135E+00  0.204E-01  0.204E-01
  -5.603  0.177E+00  0.140E+00  0.186E-01  0.186E-01
  -5.593  0.179E+00  0.145E+00  0.169E-01  0.169E-01
  -5.583  0.180E+00  0.149E+00  0.153E-01  0.153E-01
  -5.573  0.180E+00  0.153E+00  0.137E-01  0.137E-01
  -5.563  0.180E+00  0.155E+00  0.122E-01  0.122E-01
  -5.553  0.178E+00  0.156E+00  0.109E-01  0.109E-01
  -5.543  0.176E+00  0.156E+00  0.957E-02  0.957E-02
  -5.533  0.172E+00  0.155E+00  0.837E-02  0.837E-02
  -5.523  0.167E+00  0.152E+00  0.727E-02  0.727E-02
  -5.513  0.161E+00  0.148E+00  0.627E-02  0.627E-02
  -5.503  0.154E+00  0.143E+00  0.536E-02  0.536E-02
  -5.493  0.146E+00  0.137E+00  0.454E-02  0.454E-02
  -5.483  0.137E+00  0.129E+00  0.381E-02  0.381E-02
  -5.473  0.128E+00  0.121E+00  0.318E-02  0.318E-02
  -5.463  0.118E+00  0.113E+00  0.262E-02  0.262E-02
  -5.453  0.109E+00  0.104E+00  0.214E-02  0.214E-02
  -5.443  0.994E-01  0.959E-01  0.173E-02  0.173E-02
  -5.433  0.907E-01  0.879E-01  0.139E-02  0.139E-02
  -5.423  0.828E-01  0.806E-01  0.110E-02  0.110E-02
  -5.413  0.759E-01  0.741E-01  0.865E-03  0.865E-03
  -5.403  0.702E-01  0.688E-01  0.672E-03  0.672E-03
  -5.393  0.658E-01  0.648E-01  0.518E-03  0.518E-03
  -5.383  0.630E-01  0.622E-01  0.394E-03  0.394E-03
  -5.373  0.619E-01  0.613E-01  0.297E-03  0.297E-03
  -5.363  0.625E-01  0.620E-01  0.222E-03  0.222E-03
  -5.353  0.649E-01  0.646E-01  0.164E-03  0.164E-03
  -5.343  0.692E-01  0.689E-01  0.120E-03  0.120E-03
  -5.333  0.753E-01  0.751E-01  0.864E-04  0.864E-04
  -5.323  0.833E-01  0.832E-01  0.618E-04  0.618E-04
  -5.313  0.931E-01  0.930E-01  0.437E-04  0.437E-04
  -5.303  0.105E+00  0.105E+00  0.306E-04  0.306E-04
  -5.293  0.118E+00  0.118E+00  0.212E-04  0.212E-04
  -5.283  0.133E+00  0.133E+00  0.145E-04  0.145E-04
  -5.273  0.149E+00  0.149E+00  0.985E-05  0.985E-05
  -5.263  0.166E+00  0.166E+00  0.660E-05  0.660E-05
  -5.253  0.184E+00  0.184E+00  0.438E-05  0.438E-05
  -5.243  0.203E+00  0.203E+00  0.288E-05  0.288E-05
  -5.233  0.222E+00  0.222E+00  0.187E-05  0.187E-05
  -5.223  0.241E+00  0.241E+00  0.120E-05  0.120E-05
  -5.213  0.260E+00  0.260E+00  0.763E-06  0.763E-06
  -5.203  0.279E+00  0.279E+00  0.480E-06  0.480E-06
  -5.193  0.297E+00  0.297E+00  0.298E-06  0.298E-06
  -5.183  0.314E+00  0.314E+00  0.184E-06  0.184E-06
  -5.173  0.329E+00  0.329E+00  0.112E-06  0.112E-06
  -5.163  0.343E+00  0.343E+00  0.673E-07  0.673E-07
  -5.153  0.356E+00  0.356E+00  0.401E-07  0.401E-07
  -5.143  0.366E+00  0.366E+00  0.236E-07  0.236E-07
  -5.133  0.375E+00  0.375E+00  0.138E-07  0.138E-07
  -5.123  0.382E+00  0.382E+00  0.794E-08  0.794E-08
  -5.113  0.387E+00  0.387E+00  0.453E-08  0.453E-08
  -5.103  0.391E+00  0.391E+00  0.256E-08  0.256E-08
  -5.093  0.392E+00  0.392E+00  0.143E-08  0.143E-08
  -5.083  0.393E+00  0.393E+00  0.789E-09  0.789E-09
  -5.073  0.392E+00  0.392E+00  0.431E-09  0.431E-09
  -5.063  0.390E+00  0.390E+00  0.233E-09  0.233E-09
  -5.053  0.387E+00  0.387E+00  0.125E-09  0.125E-09
  -5.043  0.383E+00  0.383E+00  0.660E-10  0.660E-10
  -5.033  0.380E+00  0.380E+00  0.346E-10  0.346E-10
  -5.023  0.375E+00  0.375E+00  0.179E-10  0.179E-10
  -5.013  0.371E+00  0.371E+00  0.920E-11  0.920E-11
  -5.003  0.367E+00  0.367E+00  0.468E-11  0.468E-11
  -4.993  0.362E+00  0.362E+00  0.237E-11  0.237E-11
  -4.983  0.358E+00  0.358E+00  0.119E-11  0.119E-11
  -4.973  0.354E+00  0.354E+00  0.604E-12  0.604E-12
  -4.963  0.350E+00  0.350E+00  0.310E-12  0.310E-12
  -4.953  0.346E+00  0.346E+00  0.164E-12  0.164E-12
  -4.943  0.341E+00  0.341E+00  0.923E-13  0.923E-13
  -4.933  0.337E+00  0.337E+00  0.273E-13  0.273E-13
  -4.923  0.332E+00  0.332E+00  0.249E-13  0.249E-13
  -4.913  0.326E+00  0.326E+00  0.227E-13  0.227E-13
  -4.903  0.320E+00  0.320E+00  0.207E-13  0.207E-13
  -4.893  0.313E+00  0.313E+00  0.188E-13  0.188E-13
  -4.883  0.306E+00  0.306E+00  0.171E-13  0.171E-13
  -4.873  0.297E+00  0.297E+00  0.155E-13  0.155E-13
  -4.863  0.287E+00  0.287E+00  0.140E-13  0.140E-13
  -4.853  0.277E+00  0.277E+00  0.126E-13  0.126E-13
  -4.843  0.265E+00  0.265E+00  0.114E-13  0.114E-13
  -4.833  0.253E+00  0.253E+00  0.102E-13  0.102E-13
  -4.823  0.240E+00  0.240E+00  0.915E-14  0.915E-14
  -4.813  0.226E+00  0.226E+00  0.817E-14  0.817E-14
  -4.803  0.212E+00  0.212E+00  0.726E-14  0.726E-14
  -4.793  0.197E+00  0.197E+00  0.644E-14  0.644E-14
  -4.783  0.183E+00  0.183E+00  0.568E-14  0.568E-14
  -4.773  0.168E+00  0.168E+00  0.498E-14  0.498E-14
  -4.763  0.154E+00  0.154E+00  0.435E-14  0.435E-14
  -4.753  0.141E+00  0.141E+00  0.378E-14  0.378E-14
  -4.743  0.129E+00  0.129E+00  0.327E-14  0.327E-14
  -4.733  0.118E+00  0.118E+00  0.281E-14  0.281E-14
  -4.723  0.108E+00  0.108E+00  0.240E-14  0.240E-14
  -4.713  0.989E-01  0.989E-01  0.204E-14  0.204E-14
  -4.703  0.915E-01  0.915E-01  0.173E-14  0.173E-14
  -4.693  0.856E-01  0.856E-01  0.146E-14  0.146E-14
  -4.683  0.811E-01  0.811E-01  0.123E-14  0.123E-14
  -4.673  0.779E-01  0.779E-01  0.103E-14  0.103E-14
  -4.663  0.760E-01  0.760E-01  0.880E-15  0.880E-15
  -4.653  0.753E-01  0.753E-01  0.762E-15  0.762E-15
  -4.643  0.756E-01  0.756E-01  0.680E-15  0.680E-15
  -4.633  0.767E-01  0.767E-01  0.634E-15  0.634E-15
  -4.623  0.786E-01  0.786E-01  0.628E-15  0.628E-15
  -4.613  0.811E-01  0.811E-01  0.664E-15  0.664E-15
  -4.603  0.840E-01  0.840E-01  0.748E-15  0.748E-15
  -4.593  0.872E-01  0.872E-01  0.888E-15  0.888E-15
  -4.583  0.907E-01  0.907E-01  0.110E-14  0.110E-14
  -4.573  0.944E-01  0.944E-01  0.138E-14  0.138E-14
  -4.563  0.983E-01  0.983E-01  0.177E-14  0.177E-14
  -4.553  0.102E+00  0.102E+00  0.228E-14  0.228E-14
  -4.543  0.107E+00  0.107E+00  0.292E-14  0.292E-14
  -4.533  0.111E+00  0.111E+00  0.375E-14  0.375E-14
  -4.523  0.116E+00  0.116E+00  0.477E-14  0.477E-14
  -4.513  0.122E+00  0.122E+00  0.604E-14  0.604E-14
  -4.503  0.128E+00  0.128E+00  0.759E-14  0.759E-14
  -4.493  0.135E+00  0.135E+00  0.947E-14  0.947E-14
  -4.483  0.143E+00  0.143E+00  0.117E-13  0.117E-13
  -4.473  0.152E+00  0.152E+00  0.144E-13  0.144E-13
  -4.463  0.162E+00  0.162E+00  0.174E-13  0.174E-13
  -4.453  0.173E+00  0.173E+00  0.210E-13  0.210E-13
  -4.443  0.185E+00  0.185E+00  0.251E-13  0.251E-13
  -4.433  0.198E+00  0.198E+00  0.297E-13  0.297E-13
  -4.423  0.212E+00  0.212E+00  0.348E-13  0.348E-13
  -4.413  0.226E+00  0.226E+00  0.404E-13  0.404E-13
  -4.403  0.241E+00  0.241E+00  0.465E-13  0.465E-13
  -4.393  0.255E+00  0.255E+00  0.530E-13  0.530E-13
  -4.383  0.270E+00  0.270E+00  0.597E-13  0.597E-13
  -4.373  0.284E+00  0.284E+00  0.667E-13  0.667E-13
  -4.363  0.297E+00  0.297E+00  0.738E-13  0.738E-13
  -4.353  0.308E+00  0.308E+00  0.809E-13  0.809E-13
  -4.343  0.319E+00  0.319E+00  0.877E-13  0.877E-13
  -4.333  0.327E+00  0.327E+00  0.942E-13  0.942E-13
  -4.323  0.333E+00  0.333E+00  0.100E-12  0.100E-12
  -4.313  0.337E+00  0.337E+00  0.105E-12  0.105E-12
  -4.303  0.339E+00  0.339E+00  0.110E-12  0.110E-12
  -4.293  0.338E+00  0.338E+00  0.113E-12  0.113E-12
  -4.283  0.334E+00  0.334E+00  0.115E-12  0.115E-12
  -4.273  0.328E+00  0.328E+00  0.117E-12  0.117E-12
  -4.263  0.319E+00  0.319E+00  0.117E-12  0.117E-12
  -4.253  0.308E+00  0.308E+00  0.115E-12  0.115E-12
  -4.243  0.295E+00  0.295E+00  0.113E-12  0.113E-12
  -4.233  0.281E+00  0.281E+00  0.109E-12  0.109E-12
  -4.223  0.264E+00  0.264E+00  0.105E-12  0.105E-12
  -4.213  0.246E+00  0.246E+00  0.994E-13  0.994E-13
  -4.203  0.228E+00  0.228E+00  0.934E-13  0.934E-13
  -4.193  0.209E+00  0.209E+00  0.867E-13  0.867E-13
  -4.183  0.190E+00  0.190E+00  0.798E-13  0.798E-13
  -4.173  0.171E+00  0.171E+00  0.726E-13  0.726E-13
  -4.163  0.152E+00  0.152E+00  0.653E-13  0.653E-13
  -4.153  0.135E+00  0.135E+00  0.582E-13  0.582E-13
  -4.143  0.118E+00  0.118E+00  0.513E-13  0.513E-13
  -4.133  0.102E+00  0.102E+00  0.447E-13  0.447E-13
  -4.123  0.878E-01  0.878E-01  0.386E-13  0.386E-13
  -4.113  0.748E-01  0.748E-01  0.329E-13  0.329E-13
  -4.103  0.632E-01  0.632E-01  0.278E-13  0.278E-13
  -4.093  0.530E-01  0.530E-01  0.233E-13  0.233E-13
  -4.083  0.441E-01  0.441E-01  0.192E-13  0.192E-13
  -4.073  0.366E-01  0.366E-01  0.158E-13  0.158E-13
  -4.063  0.304E-01  0.304E-01  0.128E-13  0.128E-13
  -4.053  0.253E-01  0.253E-01  0.102E-13  0.102E-13
  -4.043  0.214E-01  0.214E-01  0.810E-14  0.810E-14
  -4.033  0.184E-01  0.184E-01  0.636E-14  0.636E-14
  -4.023  0.165E-01  0.165E-01  0.494E-14  0.494E-14
  -4.013  0.154E-01  0.154E-01  0.379E-14  0.379E-14
  -4.003  0.151E-01  0.151E-01  0.289E-14  0.289E-14
  -3.993  0.155E-01  0.155E-01  0.218E-14  0.218E-14
  -3.983  0.167E-01  0.167E-01  0.162E-14  0.162E-14
  -3.973  0.185E-01  0.185E-01  0.120E-14  0.120E-14
  -3.963  0.209E-01  0.209E-01  0.885E-15  0.885E-15
  -3.953  0.238E-01  0.238E-01  0.649E-15  0.649E-15
  -3.943  0.273E-01  0.273E-01  0.475E-15  0.475E-15
  -3.933  0.311E-01  0.311E-01  0.350E-15  0.350E-15
  -3.923  0.353E-01  0.353E-01  0.262E-15  0.262E-15
  -3.913  0.398E-01  0.398E-01  0.200E-15  0.200E-15
  -3.903  0.445E-01  0.445E-01  0.158E-15  0.158E-15
  -3.893  0.492E-01  0.492E-01  0.131E-15  0.131E-15
  -3.883  0.539E-01  0.539E-01  0.114E-15  0.114E-15
  -3.873  0.585E-01  0.585E-01  0.105E-15  0.105E-15
  -3.863  0.628E-01  0.628E-01  0.997E-16  0.997E-16
  -3.853  0.667E-01  0.667E-01  0.978E-16  0.978E-16
  -3.843  0.700E-01  0.700E-01  0.979E-16  0.979E-16
  -3.833  0.728E-01  0.728E-01  0.991E-16  0.991E-16
  -3.823  0.748E-01  0.748E-01  0.101E-15  0.101E-15
  -3.813  0.761E-01  0.761E-01  0.103E-15  0.103E-15
  -3.803  0.766E-01  0.766E-01  0.106E-15  0.106E-15
  -3.793  0.763E-01  0.763E-01  0.109E-15  0.109E-15
  -3.783  0.752E-01  0.752E-01  0.112E-15  0.112E-15
  -3.773  0.733E-01  0.733E-01  0.118E-15  0.118E-15
  -3.763  0.707E-01  0.707E-01  0.126E-15  0.126E-15
  -3.753  0.675E-01  0.675E-01  0.138E-15  0.138E-15
  -3.743  0.639E-01  0.639E-01  0.156E-15  0.156E-15
  -3.733  0.599E-01  0.599E-01  0.182E-15  0.182E-15
  -3.723  0.556E-01  0.556E-01  0.219E-15  0.219E-15
  -3.713  0.513E-01  0.513E-01  0.270E-15  0.270E-15
  -3.703  0.470E-01  0.470E-01  0.340E-15  0.340E-15
  -3.693  0.429E-01  0.429E-01  0.433E-15  0.433E-15
  -3.683  0.392E-01  0.392E-01  0.555E-15  0.555E-15
  -3.673  0.359E-01  0.359E-01  0.713E-15  0.713E-15
  -3.663  0.332E-01  0.332E-01  0.914E-15  0.914E-15
  -3.653  0.312E-01  0.312E-01  0.117E-14  0.117E-14
  -3.643  0.300E-01  0.300E-01  0.148E-14  0.148E-14
  -3.633  0.296E-01  0.296E-01  0.186E-14  0.186E-14
  -3.623  0.302E-01  0.302E-01  0.232E-14  0.232E-14
  -3.613  0.317E-01  0.317E-01  0.286E-14  0.286E-14
  -3.603  0.343E-01  0.343E-01  0.350E-14  0.350E-14
  -3.593  0.379E-01  0.379E-01  0.423E-14  0.423E-14
  -3.583  0.425E-01  0.425E-01  0.507E-14  0.507E-14
  -3.573  0.480E-01  0.480E-01  0.601E-14  0.601E-14
  -3.563  0.546E-01  0.546E-01  0.704E-14  0.704E-14
  -3.553  0.619E-01  0.619E-01  0.817E-14  0.817E-14
  -3.543  0.701E-01  0.701E-01  0.937E-14  0.937E-14
  -3.533  0.788E-01  0.788E-01  0.106E-13  0.106E-13
  -3.523  0.879E-01  0.879E-01  0.119E-13  0.119E-13
  -3.513  0.972E-01  0.972E-01  0.133E-13  0.133E-13
  -3.503  0.107E+00  0.107E+00  0.146E-13  0.146E-13
  -3.493  0.116E+00  0.116E+00  0.159E-13  0.159E-13
  -3.483  0.124E+00  0.124E+00  0.171E-13  0.171E-13
  -3.473  0.132E+00  0.132E+00  0.182E-13  0.182E-13
  -3.463  0.139E+00  0.139E+00  0.191E-13  0.191E-13
  -3.453  0.145E+00  0.145E+00  0.199E-13  0.199E-13
  -3.443  0.149E+00  0.149E+00  0.205E-13  0.205E-13
  -3.433  0.152E+00  0.152E+00  0.209E-13  0.209E-13
  -3.423  0.153E+00  0.153E+00  0.211E-13  0.211E-13
  -3.413  0.152E+00  0.152E+00  0.210E-13  0.210E-13
  -3.403  0.150E+00  0.150E+00  0.207E-13  0.207E-13
  -3.393  0.147E+00  0.147E+00  0.202E-13  0.202E-13
  -3.383  0.142E+00  0.142E+00  0.195E-13  0.195E-13
  -3.373  0.135E+00  0.135E+00  0.186E-13  0.186E-13
  -3.363  0.128E+00  0.128E+00  0.176E-13  0.176E-13
  -3.353  0.120E+00  0.120E+00  0.165E-13  0.165E-13
  -3.343  0.111E+00  0.111E+00  0.152E-13  0.152E-13
  -3.333  0.101E+00  0.101E+00  0.139E-13  0.139E-13
  -3.323  0.915E-01  0.915E-01  0.126E-13  0.126E-13
  -3.313  0.819E-01  0.819E-01  0.113E-13  0.113E-13
  -3.303  0.725E-01  0.725E-01  0.998E-14  0.998E-14
  -3.293  0.635E-01  0.635E-01  0.875E-14  0.875E-14
  -3.283  0.550E-01  0.550E-01  0.758E-14  0.758E-14
  -3.273  0.472E-01  0.472E-01  0.650E-14  0.650E-14
  -3.263  0.400E-01  0.400E-01  0.551E-14  0.551E-14
  -3.253  0.336E-01  0.336E-01  0.462E-14  0.462E-14
  -3.243  0.279E-01  0.279E-01  0.384E-14  0.384E-14
  -3.233  0.229E-01  0.229E-01  0.315E-14  0.315E-14
  -3.223  0.186E-01  0.186E-01  0.256E-14  0.256E-14
  -3.213  0.149E-01  0.149E-01  0.206E-14  0.206E-14
  -3.203  0.119E-01  0.119E-01  0.163E-14  0.163E-14
  -3.193  0.933E-02  0.933E-02  0.128E-14  0.128E-14
  -3.183  0.725E-02  0.725E-02  0.999E-15  0.999E-15
  -3.173  0.558E-02  0.558E-02  0.769E-15  0.769E-15
  -3.163  0.425E-02  0.425E-02  0.585E-15  0.585E-15
  -3.153  0.320E-02  0.320E-02  0.441E-15  0.441E-15
  -3.143  0.238E-02  0.238E-02  0.328E-15  0.328E-15
  -3.133  0.176E-02  0.176E-02  0.242E-15  0.242E-15
  -3.123  0.128E-02  0.128E-02  0.176E-15  0.176E-15
  -3.113  0.923E-03  0.923E-03  0.127E-15  0.127E-15
  -3.103  0.659E-03  0.659E-03  0.907E-16  0.907E-16
  -3.093  0.465E-03  0.465E-03  0.640E-16  0.640E-16
  -3.083  0.325E-03  0.325E-03  0.447E-16  0.447E-16
  -3.073  0.224E-03  0.224E-03  0.309E-16  0.309E-16
  -3.063  0.153E-03  0.153E-03  0.211E-16  0.211E-16
  -3.053  0.104E-03  0.104E-03  0.143E-16  0.143E-16
  -3.043  0.694E-04  0.694E-04  0.954E-17  0.954E-17
  -3.033  0.461E-04  0.461E-04  0.631E-17  0.631E-17
  -3.023  0.306E-04  0.306E-04  0.414E-17  0.414E-17
  -3.013  0.204E-04  0.204E-04  0.269E-17  0.269E-17
  -3.003  0.140E-04  0.140E-04  0.174E-17  0.174E-17
  -2.993  0.104E-04  0.104E-04  0.114E-17  0.114E-17
  -2.983  0.892E-05  0.892E-05  0.764E-18  0.764E-18
  -2.973  0.929E-05  0.929E-05  0.554E-18  0.554E-18
  -2.963  0.115E-04  0.115E-04  0.464E-18  0.464E-18
  -2.953  0.159E-04  0.159E-04  0.471E-18  0.471E-18
  -2.943  0.230E-04  0.230E-04  0.570E-18  0.570E-18
  -2.933  0.338E-04  0.338E-04  0.769E-18  0.769E-18
  -2.923  0.497E-04  0.497E-04  0.109E-17  0.109E-17
  -2.913  0.726E-04  0.726E-04  0.157E-17  0.157E-17
  -2.903  0.105E-03  0.105E-03  0.225E-17  0.225E-17
  -2.893  0.151E-03  0.151E-03  0.322E-17  0.322E-17
  -2.883  0.213E-03  0.213E-03  0.456E-17  0.456E-17
  -2.873  0.299E-03  0.299E-03  0.639E-17  0.639E-17
  -2.863  0.415E-03  0.415E-03  0.887E-17  0.887E-17
  -2.853  0.570E-03  0.570E-03  0.122E-16  0.122E-16
  -2.843  0.775E-03  0.775E-03  0.165E-16  0.165E-16
  -2.833  0.104E-02  0.104E-02  0.222E-16  0.222E-16
  -2.823  0.138E-02  0.138E-02  0.295E-16  0.295E-16
  -2.813  0.182E-02  0.182E-02  0.388E-16  0.388E-16
  -2.803  0.237E-02  0.237E-02  0.505E-16  0.505E-16
  -2.793  0.304E-02  0.304E-02  0.650E-16  0.650E-16
  -2.783  0.387E-02  0.387E-02  0.827E-16  0.827E-16
  -2.773  0.488E-02  0.488E-02  0.104E-15  0.104E-15
  -2.763  0.608E-02  0.608E-02  0.130E-15  0.130E-15
  -2.753  0.749E-02  0.749E-02  0.160E-15  0.160E-15
  -2.743  0.913E-02  0.913E-02  0.195E-15  0.195E-15
  -2.733  0.110E-01  0.110E-01  0.235E-15  0.235E-15
  -2.723  0.131E-01  0.131E-01  0.280E-15  0.280E-15
  -2.713  0.155E-01  0.155E-01  0.331E-15  0.331E-15
  -2.703  0.181E-01  0.181E-01  0.386E-15  0.386E-15
  -2.693  0.209E-01  0.209E-01  0.446E-15  0.446E-15
  -2.683  0.239E-01  0.239E-01  0.510E-15  0.510E-15
  -2.673  0.270E-01  0.270E-01  0.576E-15  0.576E-15
  -2.663  0.302E-01  0.302E-01  0.644E-15  0.644E-15
  -2.653  0.334E-01  0.334E-01  0.712E-15  0.712E-15
  -2.643  0.365E-01  0.365E-01  0.780E-15  0.780E-15
  -2.633  0.395E-01  0.395E-01  0.844E-15  0.844E-15
  -2.623  0.423E-01  0.423E-01  0.904E-15  0.904E-15
  -2.613  0.449E-01  0.449E-01  0.957E-15  0.957E-15
  -2.603  0.470E-01  0.470E-01  0.100E-14  0.100E-14
  -2.593  0.487E-01  0.487E-01  0.104E-14  0.104E-14
  -2.583  0.500E-01  0.500E-01  0.107E-14  0.107E-14
  -2.573  0.507E-01  0.507E-01  0.108E-14  0.108E-14
  -2.563  0.509E-01  0.509E-01  0.109E-14  0.109E-14
  -2.553  0.505E-01  0.505E-01  0.108E-14  0.108E-14
  -2.543  0.496E-01  0.496E-01  0.106E-14  0.106E-14
  -2.533  0.482E-01  0.482E-01  0.103E-14  0.103E-14
  -2.523  0.463E-01  0.463E-01  0.989E-15  0.989E-15
  -2.513  0.440E-01  0.440E-01  0.940E-15  0.940E-15
  -2.503  0.414E-01  0.414E-01  0.884E-15  0.884E-15
  -2.493  0.386E-01  0.386E-01  0.823E-15  0.823E-15
  -2.483  0.355E-01  0.355E-01  0.757E-15  0.757E-15
  -2.473  0.323E-01  0.323E-01  0.690E-15  0.690E-15
  -2.463  0.291E-01  0.291E-01  0.621E-15  0.621E-15
  -2.453  0.259E-01  0.259E-01  0.554E-15  0.554E-15
  -2.443  0.229E-01  0.229E-01  0.488E-15  0.488E-15
  -2.433  0.199E-01  0.199E-01  0.426E-15  0.426E-15
  -2.423  0.172E-01  0.172E-01  0.367E-15  0.367E-15
  -2.413  0.147E-01  0.147E-01  0.313E-15  0.313E-15
  -2.403  0.124E-01  0.124E-01  0.265E-15  0.265E-15
  -2.393  0.104E-01  0.104E-01  0.221E-15  0.221E-15
  -2.383  0.856E-02  0.856E-02  0.183E-15  0.183E-15
  -2.373  0.699E-02  0.699E-02  0.149E-15  0.149E-15
  -2.363  0.565E-02  0.565E-02  0.121E-15  0.121E-15
  -2.353  0.452E-02  0.452E-02  0.965E-16  0.965E-16
  -2.343  0.358E-02  0.358E-02  0.764E-16  0.764E-16
  -2.333  0.280E-02  0.280E-02  0.598E-16  0.598E-16
  -2.323  0.217E-02  0.217E-02  0.463E-16  0.463E-16
  -2.313  0.166E-02  0.166E-02  0.355E-16  0.355E-16
  -2.303  0.126E-02  0.126E-02  0.269E-16  0.269E-16
  -2.293  0.944E-03  0.944E-03  0.202E-16  0.202E-16
  -2.283  0.700E-03  0.700E-03  0.151E-16  0.151E-16
  -2.273  0.514E-03  0.514E-03  0.112E-16  0.112E-16
  -2.263  0.373E-03  0.373E-03  0.836E-17  0.836E-17
  -2.253  0.268E-03  0.268E-03  0.642E-17  0.642E-17
  -2.243  0.190E-03  0.190E-03  0.530E-17  0.530E-17
  -2.233  0.134E-03  0.134E-03  0.499E-17  0.499E-17
  -2.223  0.932E-04  0.932E-04  0.564E-17  0.564E-17
  -2.213  0.644E-04  0.644E-04  0.755E-17  0.755E-17
  -2.203  0.444E-04  0.444E-04  0.113E-16  0.113E-16
  -2.193  0.308E-04  0.308E-04  0.177E-16  0.177E-16
  -2.183  0.220E-04  0.220E-04  0.284E-16  0.284E-16
  -2.173  0.170E-04  0.170E-04  0.456E-16  0.456E-16
  -2.163  0.150E-04  0.150E-04  0.728E-16  0.728E-16
  -2.153  0.159E-04  0.159E-04  0.115E-15  0.115E-15
  -2.143  0.200E-04  0.200E-04  0.180E-15  0.180E-15
  -2.133  0.278E-04  0.278E-04  0.280E-15  0.280E-15
  -2.123  0.407E-04  0.407E-04  0.429E-15  0.429E-15
  -2.113  0.606E-04  0.606E-04  0.651E-15  0.651E-15
  -2.103  0.902E-04  0.902E-04  0.978E-15  0.978E-15
  -2.093  0.133E-03  0.133E-03  0.145E-14  0.145E-14
  -2.083  0.196E-03  0.196E-03  0.213E-14  0.213E-14
  -2.073  0.284E-03  0.284E-03  0.310E-14  0.310E-14
  -2.063  0.409E-03  0.409E-03  0.446E-14  0.446E-14
  -2.053  0.581E-03  0.581E-03  0.634E-14  0.634E-14
  -2.043  0.818E-03  0.818E-03  0.892E-14  0.892E-14
  -2.033  0.114E-02  0.114E-02  0.124E-13  0.124E-13
  -2.023  0.157E-02  0.157E-02  0.171E-13  0.171E-13
  -2.013  0.213E-02  0.213E-02  0.233E-13  0.233E-13
  -2.003  0.288E-02  0.288E-02  0.314E-13  0.314E-13
  -1.993  0.383E-02  0.383E-02  0.418E-13  0.418E-13
  -1.983  0.506E-02  0.506E-02  0.551E-13  0.551E-13
  -1.973  0.659E-02  0.659E-02  0.719E-13  0.719E-13
  -1.963  0.851E-02  0.851E-02  0.928E-13  0.928E-13
  -1.953  0.109E-01  0.109E-01  0.118E-12  0.118E-12
  -1.943  0.137E-01  0.137E-01  0.150E-12  0.150E-12
  -1.933  0.171E-01  0.171E-01  0.187E-12  0.187E-12
  -1.923  0.212E-01  0.212E-01  0.231E-12  0.231E-12
  -1.913  0.259E-01  0.259E-01  0.282E-12  0.282E-12
  -1.903  0.313E-01  0.313E-01  0.342E-12  0.342E-12
  -1.893  0.375E-01  0.375E-01  0.409E-12  0.409E-12
  -1.883  0.444E-01  0.444E-01  0.484E-12  0.484E-12
  -1.873  0.519E-01  0.519E-01  0.566E-12  0.566E-12
  -1.863  0.602E-01  0.602E-01  0.656E-12  0.656E-12
  -1.853  0.689E-01  0.689E-01  0.752E-12  0.752E-12
  -1.843  0.781E-01  0.781E-01  0.852E-12  0.852E-12
  -1.833  0.876E-01  0.876E-01  0.956E-12  0.956E-12
  -1.823  0.972E-01  0.972E-01  0.106E-11  0.106E-11
  -1.813  0.107E+00  0.107E+00  0.116E-11  0.116E-11
  -1.803  0.116E+00  0.116E+00  0.126E-11  0.126E-11
  -1.793  0.124E+00  0.124E+00  0.136E-11  0.136E-11
  -1.783  0.132E+00  0.132E+00  0.144E-11  0.144E-11
  -1.773  0.139E+00  0.139E+00  0.152E-11  0.152E-11
  -1.763  0.145E+00  0.145E+00  0.158E-11  0.158E-11
  -1.753  0.149E+00  0.149E+00  0.163E-11  0.163E-11
  -1.743  0.152E+00  0.152E+00  0.166E-11  0.166E-11
  -1.733  0.153E+00  0.153E+00  0.167E-11  0.167E-11
  -1.723  0.153E+00  0.153E+00  0.167E-11  0.167E-11
  -1.713  0.151E+00  0.151E+00  0.165E-11  0.165E-11
  -1.703  0.147E+00  0.147E+00  0.162E-11  0.162E-11
  -1.693  0.143E+00  0.143E+00  0.158E-11  0.158E-11
  -1.683  0.137E+00  0.137E+00  0.152E-11  0.152E-11
  -1.673  0.131E+00  0.131E+00  0.146E-11  0.146E-11
  -1.663  0.124E+00  0.124E+00  0.139E-11  0.139E-11
  -1.653  0.116E+00  0.116E+00  0.132E-11  0.132E-11
  -1.643  0.108E+00  0.108E+00  0.125E-11  0.125E-11
  -1.633  0.101E+00  0.101E+00  0.118E-11  0.118E-11
  -1.623  0.940E-01  0.940E-01  0.112E-11  0.112E-11
  -1.613  0.875E-01  0.875E-01  0.107E-11  0.107E-11
  -1.603  0.819E-01  0.819E-01  0.103E-11  0.103E-11
  -1.593  0.771E-01  0.771E-01  0.101E-11  0.101E-11
  -1.583  0.733E-01  0.733E-01  0.993E-12  0.993E-12
  -1.573  0.705E-01  0.705E-01  0.992E-12  0.992E-12
  -1.563  0.686E-01  0.686E-01  0.100E-11  0.100E-11
  -1.553  0.677E-01  0.677E-01  0.103E-11  0.103E-11
  -1.543  0.676E-01  0.676E-01  0.106E-11  0.106E-11
  -1.533  0.681E-01  0.681E-01  0.110E-11  0.110E-11
  -1.523  0.692E-01  0.692E-01  0.114E-11  0.114E-11
  -1.513  0.707E-01  0.707E-01  0.119E-11  0.119E-11
  -1.503  0.723E-01  0.723E-01  0.124E-11  0.124E-11
  -1.493  0.740E-01  0.740E-01  0.128E-11  0.128E-11
  -1.483  0.754E-01  0.754E-01  0.132E-11  0.132E-11
  -1.473  0.766E-01  0.766E-01  0.135E-11  0.135E-11
  -1.463  0.773E-01  0.773E-01  0.137E-11  0.137E-11
  -1.453  0.775E-01  0.775E-01  0.138E-11  0.138E-11
  -1.443  0.770E-01  0.770E-01  0.137E-11  0.137E-11
  -1.433  0.759E-01  0.759E-01  0.136E-11  0.136E-11
  -1.423  0.741E-01  0.741E-01  0.133E-11  0.133E-11
  -1.413  0.717E-01  0.717E-01  0.129E-11  0.129E-11
  -1.403  0.686E-01  0.686E-01  0.124E-11  0.124E-11
  -1.393  0.651E-01  0.651E-01  0.119E-11  0.119E-11
  -1.383  0.611E-01  0.611E-01  0.113E-11  0.113E-11
  -1.373  0.568E-01  0.568E-01  0.107E-11  0.107E-11
  -1.363  0.522E-01  0.522E-01  0.101E-11  0.101E-11
  -1.353  0.476E-01  0.476E-01  0.956E-12  0.956E-12
  -1.343  0.431E-01  0.431E-01  0.917E-12  0.917E-12
  -1.333  0.387E-01  0.387E-01  0.898E-12  0.898E-12
  -1.323  0.345E-01  0.345E-01  0.904E-12  0.904E-12
  -1.313  0.307E-01  0.307E-01  0.946E-12  0.946E-12
  -1.303  0.274E-01  0.274E-01  0.103E-11  0.103E-11
  -1.293  0.247E-01  0.247E-01  0.117E-11  0.117E-11
  -1.283  0.226E-01  0.226E-01  0.138E-11  0.138E-11
  -1.273  0.212E-01  0.212E-01  0.167E-11  0.167E-11
  -1.263  0.206E-01  0.206E-01  0.206E-11  0.206E-11
  -1.253  0.209E-01  0.209E-01  0.257E-11  0.257E-11
  -1.243  0.222E-01  0.222E-01  0.321E-11  0.321E-11
  -1.233  0.246E-01  0.246E-01  0.401E-11  0.401E-11
  -1.223  0.281E-01  0.281E-01  0.498E-11  0.498E-11
  -1.213  0.329E-01  0.329E-01  0.615E-11  0.615E-11
  -1.203  0.390E-01  0.390E-01  0.754E-11  0.754E-11
  -1.193  0.466E-01  0.466E-01  0.915E-11  0.915E-11
  -1.183  0.558E-01  0.558E-01  0.110E-10  0.110E-10
  -1.173  0.665E-01  0.665E-01  0.131E-10  0.131E-10
  -1.163  0.790E-01  0.790E-01  0.154E-10  0.154E-10
  -1.153  0.932E-01  0.932E-01  0.180E-10  0.180E-10
  -1.143  0.109E+00  0.109E+00  0.208E-10  0.208E-10
  -1.133  0.127E+00  0.127E+00  0.238E-10  0.238E-10
  -1.123  0.146E+00  0.146E+00  0.269E-10  0.269E-10
  -1.113  0.166E+00  0.166E+00  0.301E-10  0.301E-10
  -1.103  0.188E+00  0.188E+00  0.334E-10  0.334E-10
  -1.093  0.211E+00  0.211E+00  0.367E-10  0.367E-10
  -1.083  0.235E+00  0.235E+00  0.398E-10  0.398E-10
  -1.073  0.259E+00  0.259E+00  0.429E-10  0.429E-10
  -1.063  0.283E+00  0.283E+00  0.457E-10  0.457E-10
  -1.053  0.307E+00  0.307E+00  0.482E-10  0.482E-10
  -1.043  0.330E+00  0.330E+00  0.503E-10  0.503E-10
  -1.033  0.353E+00  0.353E+00  0.520E-10  0.520E-10
  -1.023  0.374E+00  0.374E+00  0.533E-10  0.533E-10
  -1.013  0.393E+00  0.393E+00  0.541E-10  0.541E-10
  -1.003  0.411E+00  0.411E+00  0.544E-10  0.544E-10
  -0.993  0.426E+00  0.426E+00  0.543E-10  0.543E-10
  -0.983  0.439E+00  0.439E+00  0.536E-10  0.536E-10
  -0.973  0.449E+00  0.449E+00  0.525E-10  0.525E-10
  -0.963  0.457E+00  0.457E+00  0.510E-10  0.510E-10
  -0.953  0.462E+00  0.462E+00  0.491E-10  0.491E-10
  -0.943  0.465E+00  0.465E+00  0.469E-10  0.469E-10
  -0.933  0.465E+00  0.465E+00  0.445E-10  0.445E-10
  -0.923  0.462E+00  0.462E+00  0.419E-10  0.419E-10
  -0.913  0.458E+00  0.458E+00  0.391E-10  0.391E-10
  -0.903  0.451E+00  0.451E+00  0.363E-10  0.363E-10
  -0.893  0.442E+00  0.442E+00  0.335E-10  0.335E-10
  -0.883  0.431E+00  0.431E+00  0.307E-10  0.307E-10
  -0.873  0.419E+00  0.419E+00  0.279E-10  0.279E-10
  -0.863  0.405E+00  0.405E+00  0.253E-10  0.253E-10
  -0.853  0.390E+00  0.390E+00  0.228E-10  0.228E-10
  -0.843  0.373E+00  0.373E+00  0.205E-10  0.205E-10
  -0.833  0.356E+00  0.356E+00  0.183E-10  0.183E-10
  -0.823  0.339E+00  0.339E+00  0.163E-10  0.163E-10
  -0.813  0.320E+00  0.320E+00  0.145E-10  0.145E-10
  -0.803  0.301E+00  0.301E+00  0.128E-10  0.128E-10
  -0.793  0.282E+00  0.282E+00  0.113E-10  0.113E-10
  -0.783  0.263E+00  0.263E+00  0.997E-11  0.997E-11
  -0.773  0.245E+00  0.245E+00  0.876E-11  0.876E-11
  -0.763  0.226E+00  0.226E+00  0.768E-11  0.768E-11
  -0.753  0.208E+00  0.208E+00  0.672E-11  0.672E-11
  -0.743  0.191E+00  0.191E+00  0.587E-11  0.587E-11
  -0.733  0.175E+00  0.175E+00  0.513E-11  0.513E-11
  -0.723  0.160E+00  0.160E+00  0.448E-11  0.448E-11
  -0.713  0.146E+00  0.146E+00  0.391E-11  0.391E-11
  -0.703  0.134E+00  0.134E+00  0.343E-11  0.343E-11
  -0.693  0.124E+00  0.124E+00  0.302E-11  0.302E-11
  -0.683  0.115E+00  0.115E+00  0.268E-11  0.268E-11
  -0.673  0.109E+00  0.109E+00  0.240E-11  0.240E-11
  -0.663  0.104E+00  0.104E+00  0.219E-11  0.219E-11
  -0.653  0.102E+00  0.102E+00  0.203E-11  0.203E-11
  -0.643  0.101E+00  0.101E+00  0.193E-11  0.193E-11
  -0.633  0.102E+00  0.102E+00  0.188E-11  0.188E-11
  -0.623  0.106E+00  0.106E+00  0.187E-11  0.187E-11
  -0.613  0.110E+00  0.110E+00  0.192E-11  0.192E-11
  -0.603  0.117E+00  0.117E+00  0.200E-11  0.200E-11
  -0.593  0.124E+00  0.124E+00  0.211E-11  0.211E-11
  -0.583  0.133E+00  0.133E+00  0.226E-11  0.226E-11
  -0.573  0.142E+00  0.142E+00  0.244E-11  0.244E-11
  -0.563  0.151E+00  0.151E+00  0.264E-11  0.264E-11
  -0.553  0.160E+00  0.160E+00  0.286E-11  0.286E-11
  -0.543  0.169E+00  0.169E+00  0.309E-11  0.309E-11
  -0.533  0.178E+00  0.178E+00  0.333E-11  0.333E-11
  -0.523  0.185E+00  0.185E+00  0.357E-11  0.357E-11
  -0.513  0.192E+00  0.192E+00  0.382E-11  0.382E-11
  -0.503  0.197E+00  0.197E+00  0.408E-11  0.408E-11
  -0.493  0.200E+00  0.200E+00  0.433E-11  0.433E-11
  -0.483  0.202E+00  0.202E+00  0.460E-11  0.460E-11
  -0.473  0.202E+00  0.202E+00  0.487E-11  0.487E-11
  -0.463  0.201E+00  0.201E+00  0.517E-11  0.517E-11
  -0.453  0.198E+00  0.198E+00  0.551E-11  0.551E-11
  -0.443  0.193E+00  0.193E+00  0.589E-11  0.589E-11
  -0.433  0.188E+00  0.188E+00  0.636E-11  0.636E-11
  -0.423  0.181E+00  0.181E+00  0.693E-11  0.693E-11
  -0.413  0.173E+00  0.173E+00  0.764E-11  0.764E-11
  -0.403  0.165E+00  0.165E+00  0.854E-11  0.854E-11
  -0.393  0.156E+00  0.156E+00  0.965E-11  0.965E-11
  -0.383  0.148E+00  0.148E+00  0.110E-10  0.110E-10
  -0.373  0.139E+00  0.139E+00  0.127E-10  0.127E-10
  -0.363  0.131E+00  0.131E+00  0.148E-10  0.148E-10
  -0.353  0.124E+00  0.124E+00  0.173E-10  0.173E-10
  -0.343  0.117E+00  0.117E+00  0.202E-10  0.202E-10
  -0.333  0.112E+00  0.112E+00  0.237E-10  0.237E-10
  -0.323  0.108E+00  0.108E+00  0.276E-10  0.276E-10
  -0.313  0.105E+00  0.105E+00  0.321E-10  0.321E-10
  -0.303  0.104E+00  0.104E+00  0.371E-10  0.371E-10
  -0.293  0.104E+00  0.104E+00  0.426E-10  0.426E-10
  -0.283  0.106E+00  0.106E+00  0.484E-10  0.484E-10
  -0.273  0.108E+00  0.108E+00  0.547E-10  0.547E-10
  -0.263  0.112E+00  0.112E+00  0.612E-10  0.612E-10
  -0.253  0.117E+00  0.117E+00  0.678E-10  0.678E-10
  -0.243  0.123E+00  0.123E+00  0.744E-10  0.744E-10
  -0.233  0.128E+00  0.128E+00  0.808E-10  0.808E-10
  -0.223  0.135E+00  0.135E+00  0.869E-10  0.869E-10
  -0.213  0.141E+00  0.141E+00  0.925E-10  0.925E-10
  -0.203  0.147E+00  0.147E+00  0.974E-10  0.974E-10
  -0.193  0.152E+00  0.152E+00  0.102E-09  0.102E-09
  -0.183  0.157E+00  0.157E+00  0.105E-09  0.105E-09
  -0.173  0.161E+00  0.161E+00  0.107E-09  0.107E-09
  -0.163  0.164E+00  0.164E+00  0.108E-09  0.108E-09
  -0.153  0.167E+00  0.167E+00  0.108E-09  0.108E-09
  -0.143  0.169E+00  0.169E+00  0.107E-09  0.107E-09
  -0.133  0.171E+00  0.171E+00  0.105E-09  0.105E-09
  -0.123  0.172E+00  0.172E+00  0.101E-09  0.101E-09
  -0.113  0.174E+00  0.174E+00  0.974E-10  0.974E-10
  -0.103  0.175E+00  0.175E+00  0.926E-10  0.926E-10
  -0.093  0.178E+00  0.178E+00  0.873E-10  0.873E-10
  -0.083  0.181E+00  0.181E+00  0.815E-10  0.815E-10
  -0.073  0.185E+00  0.185E+00  0.754E-10  0.754E-10
  -0.063  0.190E+00  0.190E+00  0.693E-10  0.693E-10
  -0.053  0.196E+00  0.196E+00  0.632E-10  0.632E-10
  -0.043  0.204E+00  0.204E+00  0.573E-10  0.573E-10
  -0.033  0.213E+00  0.213E+00  0.516E-10  0.516E-10
  -0.023  0.223E+00  0.223E+00  0.464E-10  0.464E-10
  -0.013  0.234E+00  0.234E+00  0.416E-10  0.416E-10
  -0.003  0.245E+00  0.245E+00  0.372E-10  0.372E-10
   0.007  0.256E+00  0.256E+00  0.334E-10  0.334E-10
   0.017  0.268E+00  0.268E+00  0.300E-10  0.300E-10
   0.027  0.278E+00  0.278E+00  0.270E-10  0.270E-10
   0.037  0.287E+00  0.287E+00  0.245E-10  0.245E-10
   0.047  0.295E+00  0.295E+00  0.223E-10  0.223E-10
   0.057  0.300E+00  0.300E+00  0.204E-10  0.204E-10
   0.067  0.303E+00  0.303E+00  0.188E-10  0.188E-10
   0.077  0.304E+00  0.304E+00  0.174E-10  0.174E-10
   0.087  0.301E+00  0.301E+00  0.161E-10  0.161E-10
   0.097  0.296E+00  0.296E+00  0.150E-10  0.150E-10
   0.107  0.288E+00  0.288E+00  0.139E-10  0.139E-10
   0.117  0.277E+00  0.277E+00  0.129E-10  0.129E-10
   0.127  0.265E+00  0.265E+00  0.119E-10  0.119E-10
   0.137  0.250E+00  0.250E+00  0.110E-10  0.110E-10
   0.147  0.233E+00  0.233E+00  0.100E-10  0.100E-10
   0.157  0.216E+00  0.216E+00  0.913E-11  0.913E-11
   0.167  0.197E+00  0.197E+00  0.824E-11  0.824E-11
   0.177  0.179E+00  0.179E+00  0.737E-11  0.737E-11
   0.187  0.160E+00  0.160E+00  0.654E-11  0.654E-11
   0.197  0.142E+00  0.142E+00  0.575E-11  0.575E-11
   0.207  0.124E+00  0.124E+00  0.501E-11  0.501E-11
   0.217  0.108E+00  0.108E+00  0.432E-11  0.432E-11
   0.227  0.925E-01  0.925E-01  0.370E-11  0.370E-11
   0.237  0.786E-01  0.786E-01  0.313E-11  0.313E-11
   0.247  0.661E-01  0.661E-01  0.263E-11  0.263E-11
   0.257  0.550E-01  0.550E-01  0.220E-11  0.220E-11
   0.267  0.454E-01  0.454E-01  0.185E-11  0.185E-11
   0.277  0.371E-01  0.371E-01  0.158E-11  0.158E-11
   0.287  0.301E-01  0.301E-01  0.143E-11  0.143E-11
   0.297  0.243E-01  0.243E-01  0.145E-11  0.145E-11
   0.307  0.197E-01  0.197E-01  0.173E-11  0.173E-11
   0.317  0.161E-01  0.161E-01  0.245E-11  0.245E-11
   0.327  0.133E-01  0.133E-01  0.397E-11  0.397E-11
   0.337  0.115E-01  0.115E-01  0.688E-11  0.688E-11
   0.347  0.104E-01  0.104E-01  0.123E-10  0.123E-10
   0.357  0.101E-01  0.101E-01  0.220E-10  0.220E-10
   0.367  0.104E-01  0.104E-01  0.395E-10  0.395E-10
   0.377  0.115E-01  0.115E-01  0.701E-10  0.701E-10
   0.387  0.132E-01  0.132E-01  0.124E-09  0.124E-09
   0.397  0.156E-01  0.156E-01  0.216E-09  0.216E-09
   0.407  0.188E-01  0.188E-01  0.372E-09  0.372E-09
   0.417  0.227E-01  0.227E-01  0.635E-09  0.635E-09
   0.427  0.274E-01  0.274E-01  0.107E-08  0.107E-08
   0.437  0.329E-01  0.329E-01  0.179E-08  0.179E-08
   0.447  0.393E-01  0.393E-01  0.297E-08  0.297E-08
   0.457  0.464E-01  0.464E-01  0.486E-08  0.486E-08
   0.467  0.543E-01  0.543E-01  0.786E-08  0.786E-08
   0.477  0.630E-01  0.630E-01  0.126E-07  0.126E-07
   0.487  0.724E-01  0.724E-01  0.200E-07  0.200E-07
   0.497  0.823E-01  0.823E-01  0.313E-07  0.313E-07
   0.507  0.927E-01  0.927E-01  0.485E-07  0.485E-07
   0.517  0.103E+00  0.103E+00  0.744E-07  0.744E-07
   0.527  0.114E+00  0.114E+00  0.113E-06  0.113E-06
   0.537  0.125E+00  0.125E+00  0.169E-06  0.169E-06
   0.547  0.135E+00  0.135E+00  0.252E-06  0.252E-06
   0.557  0.145E+00  0.145E+00  0.370E-06  0.370E-06
   0.567  0.154E+00  0.154E+00  0.537E-06  0.537E-06
   0.577  0.163E+00  0.163E+00  0.772E-06  0.772E-06
   0.587  0.170E+00  0.170E+00  0.110E-05  0.110E-05
   0.597  0.176E+00  0.176E+00  0.154E-05  0.154E-05
   0.607  0.181E+00  0.181E+00  0.215E-05  0.215E-05
   0.617  0.184E+00  0.184E+00  0.296E-05  0.296E-05
   0.627  0.186E+00  0.186E+00  0.403E-05  0.403E-05
   0.637  0.187E+00  0.187E+00  0.543E-05  0.543E-05
   0.647  0.186E+00  0.186E+00  0.725E-05  0.725E-05
   0.657  0.184E+00  0.184E+00  0.956E-05  0.956E-05
   0.667  0.181E+00  0.180E+00  0.125E-04  0.125E-04
   0.677  0.176E+00  0.176E+00  0.161E-04  0.161E-04
   0.687  0.170E+00  0.170E+00  0.206E-04  0.206E-04
   0.697  0.164E+00  0.164E+00  0.260E-04  0.260E-04
   0.707  0.157E+00  0.157E+00  0.325E-04  0.325E-04
   0.717  0.149E+00  0.149E+00  0.402E-04  0.402E-04
   0.727  0.141E+00  0.141E+00  0.492E-04  0.492E-04
   0.737  0.133E+00  0.133E+00  0.597E-04  0.597E-04
   0.747  0.125E+00  0.124E+00  0.715E-04  0.715E-04
   0.757  0.116E+00  0.116E+00  0.849E-04  0.849E-04
   0.767  0.109E+00  0.108E+00  0.998E-04  0.998E-04
   0.777  0.101E+00  0.101E+00  0.116E-03  0.116E-03
   0.787  0.944E-01  0.941E-01  0.134E-03  0.134E-03
   0.797  0.883E-01  0.880E-01  0.153E-03  0.153E-03
   0.807  0.832E-01  0.828E-01  0.172E-03  0.172E-03
   0.817  0.790E-01  0.787E-01  0.193E-03  0.193E-03
   0.827  0.760E-01  0.756E-01  0.215E-03  0.215E-03
   0.837  0.742E-01  0.738E-01  0.236E-03  0.236E-03
   0.847  0.737E-01  0.732E-01  0.258E-03  0.258E-03
   0.857  0.745E-01  0.739E-01  0.281E-03  0.281E-03
   0.867  0.766E-01  0.760E-01  0.303E-03  0.303E-03
   0.877  0.799E-01  0.793E-01  0.325E-03  0.325E-03
   0.887  0.845E-01  0.838E-01  0.347E-03  0.347E-03
   0.897  0.902E-01  0.894E-01  0.370E-03  0.370E-03
   0.907  0.968E-01  0.960E-01  0.393E-03  0.393E-03
   0.917  0.104E+00  0.103E+00  0.417E-03  0.417E-03
   0.927  0.112E+00  0.111E+00  0.442E-03  0.442E-03
   0.937  0.120E+00  0.119E+00  0.469E-03  0.469E-03
   0.947  0.129E+00  0.128E+00  0.499E-03  0.499E-03
   0.957  0.137E+00  0.136E+00  0.531E-03  0.531E-03
   0.967  0.145E+00  0.144E+00  0.566E-03  0.566E-03
   0.977  0.152E+00  0.151E+00  0.605E-03  0.605E-03
   0.987  0.159E+00  0.157E+00  0.648E-03  0.648E-03
   0.997  0.164E+00  0.163E+00  0.695E-03  0.695E-03
   1.007  0.169E+00  0.167E+00  0.746E-03  0.746E-03
   1.017  0.172E+00  0.171E+00  0.800E-03  0.800E-03
   1.027  0.174E+00  0.173E+00  0.857E-03  0.857E-03
   1.037  0.176E+00  0.174E+00  0.917E-03  0.917E-03
   1.047  0.176E+00  0.174E+00  0.978E-03  0.978E-03
   1.057  0.175E+00  0.173E+00  0.104E-02  0.104E-02
   1.067  0.173E+00  0.171E+00  0.110E-02  0.110E-02
   1.077  0.170E+00  0.168E+00  0.116E-02  0.116E-02
   1.087  0.167E+00  0.165E+00  0.121E-02  0.121E-02
   1.097  0.163E+00  0.161E+00  0.126E-02  0.126E-02
   1.107  0.159E+00  0.157E+00  0.131E-02  0.131E-02
   1.117  0.155E+00  0.153E+00  0.134E-02  0.134E-02
   1.127  0.151E+00  0.148E+00  0.137E-02  0.137E-02
   1.137  0.147E+00  0.144E+00  0.139E-02  0.139E-02
   1.147  0.143E+00  0.140E+00  0.140E-02  0.140E-02
   1.157  0.140E+00  0.137E+00  0.140E-02  0.140E-02
   1.167  0.137E+00  0.134E+00  0.139E-02  0.139E-02
   1.177  0.134E+00  0.131E+00  0.137E-02  0.137E-02
   1.187  0.132E+00  0.129E+00  0.134E-02  0.134E-02
   1.197  0.130E+00  0.128E+00  0.131E-02  0.131E-02
   1.207  0.129E+00  0.127E+00  0.127E-02  0.127E-02
   1.217  0.129E+00  0.127E+00  0.122E-02  0.122E-02
   1.227  0.130E+00  0.127E+00  0.117E-02  0.117E-02
   1.237  0.131E+00  0.128E+00  0.112E-02  0.112E-02
   1.247  0.133E+00  0.130E+00  0.107E-02  0.107E-02
   1.257  0.135E+00  0.133E+00  0.103E-02  0.103E-02
   1.267  0.138E+00  0.136E+00  0.993E-03  0.993E-03
   1.277  0.141E+00  0.139E+00  0.965E-03  0.965E-03
   1.287  0.145E+00  0.143E+00  0.947E-03  0.947E-03
   1.297  0.148E+00  0.146E+00  0.943E-03  0.943E-03
   1.307  0.152E+00  0.150E+00  0.952E-03  0.952E-03
   1.317  0.155E+00  0.153E+00  0.978E-03  0.978E-03
   1.327  0.157E+00  0.155E+00  0.102E-02  0.102E-02
   1.337  0.159E+00  0.157E+00  0.108E-02  0.108E-02
   1.347  0.160E+00  0.158E+00  0.115E-02  0.115E-02
   1.357  0.160E+00  0.158E+00  0.124E-02  0.124E-02
   1.367  0.159E+00  0.156E+00  0.134E-02  0.134E-02
   1.377  0.156E+00  0.154E+00  0.145E-02  0.145E-02
   1.387  0.153E+00  0.150E+00  0.157E-02  0.157E-02
   1.397  0.148E+00  0.145E+00  0.170E-02  0.170E-02
   1.407  0.142E+00  0.138E+00  0.183E-02  0.183E-02
   1.417  0.135E+00  0.131E+00  0.195E-02  0.195E-02
   1.427  0.127E+00  0.123E+00  0.207E-02  0.207E-02
   1.437  0.119E+00  0.115E+00  0.218E-02  0.218E-02
   1.447  0.110E+00  0.106E+00  0.228E-02  0.228E-02
   1.457  0.101E+00  0.963E-01  0.236E-02  0.236E-02
   1.467  0.918E-01  0.869E-01  0.243E-02  0.243E-02
   1.477  0.827E-01  0.777E-01  0.248E-02  0.248E-02
   1.487  0.738E-01  0.687E-01  0.251E-02  0.251E-02
   1.497  0.653E-01  0.602E-01  0.252E-02  0.252E-02
   1.507  0.573E-01  0.523E-01  0.252E-02  0.252E-02
   1.517  0.499E-01  0.449E-01  0.249E-02  0.249E-02
   1.527  0.432E-01  0.382E-01  0.246E-02  0.246E-02
   1.537  0.371E-01  0.323E-01  0.242E-02  0.242E-02
   1.547  0.317E-01  0.270E-01  0.236E-02  0.236E-02
   1.557  0.271E-01  0.225E-01  0.230E-02  0.230E-02
   1.567  0.230E-01  0.186E-01  0.224E-02  0.224E-02
   1.577  0.197E-01  0.153E-01  0.217E-02  0.217E-02
   1.587  0.168E-01  0.126E-01  0.211E-02  0.211E-02
   1.597  0.145E-01  0.105E-01  0.204E-02  0.204E-02
   1.607  0.128E-01  0.879E-02  0.198E-02  0.198E-02
   1.617  0.114E-01  0.757E-02  0.192E-02  0.192E-02
   1.627  0.105E-01  0.676E-02  0.186E-02  0.186E-02
   1.637  0.995E-02  0.634E-02  0.180E-02  0.180E-02
   1.647  0.980E-02  0.631E-02  0.175E-02  0.175E-02
   1.657  0.100E-01  0.665E-02  0.169E-02  0.169E-02
   1.667  0.107E-01  0.739E-02  0.163E-02  0.163E-02
   1.677  0.117E-01  0.854E-02  0.157E-02  0.157E-02
   1.687  0.132E-01  0.101E-01  0.151E-02  0.151E-02
   1.697  0.151E-01  0.122E-01  0.145E-02  0.145E-02
   1.707  0.176E-01  0.148E-01  0.139E-02  0.139E-02
   1.717  0.207E-01  0.180E-01  0.133E-02  0.133E-02
   1.727  0.244E-01  0.218E-01  0.126E-02  0.126E-02
   1.737  0.287E-01  0.263E-01  0.121E-02  0.121E-02
   1.747  0.338E-01  0.315E-01  0.115E-02  0.115E-02
   1.757  0.397E-01  0.374E-01  0.110E-02  0.110E-02
   1.767  0.462E-01  0.441E-01  0.107E-02  0.107E-02
   1.777  0.535E-01  0.514E-01  0.104E-02  0.104E-02
   1.787  0.614E-01  0.594E-01  0.103E-02  0.103E-02
   1.797  0.700E-01  0.679E-01  0.103E-02  0.103E-02
   1.807  0.791E-01  0.770E-01  0.105E-02  0.105E-02
   1.817  0.885E-01  0.863E-01  0.108E-02  0.108E-02
   1.827  0.981E-01  0.959E-01  0.114E-02  0.114E-02
   1.837  0.108E+00  0.105E+00  0.121E-02  0.121E-02
   1.847  0.117E+00  0.115E+00  0.131E-02  0.131E-02
   1.857  0.126E+00  0.124E+00  0.142E-02  0.142E-02
   1.867  0.135E+00  0.132E+00  0.156E-02  0.156E-02
   1.877  0.143E+00  0.140E+00  0.170E-02  0.170E-02
   1.887  0.150E+00  0.146E+00  0.186E-02  0.186E-02
   1.897  0.156E+00  0.152E+00  0.204E-02  0.204E-02
   1.907  0.160E+00  0.156E+00  0.222E-02  0.222E-02
   1.917  0.164E+00  0.159E+00  0.240E-02  0.240E-02
   1.927  0.166E+00  0.161E+00  0.259E-02  0.259E-02
   1.937  0.167E+00  0.162E+00  0.278E-02  0.278E-02
   1.947  0.167E+00  0.161E+00  0.296E-02  0.296E-02
   1.957  0.166E+00  0.160E+00  0.313E-02  0.313E-02
   1.967  0.165E+00  0.158E+00  0.328E-02  0.328E-02
   1.977  0.162E+00  0.155E+00  0.342E-02  0.342E-02
   1.987  0.159E+00  0.152E+00  0.353E-02  0.353E-02
   1.997  0.156E+00  0.149E+00  0.362E-02  0.362E-02
   2.007  0.153E+00  0.146E+00  0.369E-02  0.369E-02
   2.017  0.150E+00  0.143E+00  0.372E-02  0.372E-02
   2.027  0.148E+00  0.140E+00  0.373E-02  0.373E-02
   2.037  0.145E+00  0.138E+00  0.370E-02  0.370E-02
   2.047  0.144E+00  0.137E+00  0.365E-02  0.365E-02
   2.057  0.143E+00  0.136E+00  0.356E-02  0.356E-02
   2.067  0.143E+00  0.136E+00  0.346E-02  0.346E-02
   2.077  0.143E+00  0.136E+00  0.333E-02  0.333E-02
   2.087  0.144E+00  0.138E+00  0.318E-02  0.318E-02
   2.097  0.146E+00  0.140E+00  0.301E-02  0.301E-02
   2.107  0.148E+00  0.143E+00  0.284E-02  0.284E-02
   2.117  0.151E+00  0.146E+00  0.266E-02  0.266E-02
   2.127  0.155E+00  0.150E+00  0.248E-02  0.248E-02
   2.137  0.158E+00  0.154E+00  0.230E-02  0.230E-02
   2.147  0.162E+00  0.158E+00  0.214E-02  0.214E-02
   2.157  0.166E+00  0.162E+00  0.198E-02  0.198E-02
   2.167  0.170E+00  0.166E+00  0.185E-02  0.185E-02
   2.177  0.174E+00  0.170E+00  0.173E-02  0.173E-02
   2.187  0.177E+00  0.174E+00  0.162E-02  0.162E-02
   2.197  0.179E+00  0.176E+00  0.154E-02  0.154E-02
   2.207  0.181E+00  0.178E+00  0.148E-02  0.148E-02
   2.217  0.182E+00  0.180E+00  0.144E-02  0.144E-02
   2.227  0.183E+00  0.180E+00  0.142E-02  0.142E-02
   2.237  0.181E+00  0.179E+00  0.141E-02  0.141E-02
   2.247  0.179E+00  0.176E+00  0.142E-02  0.142E-02
   2.257  0.176E+00  0.173E+00  0.144E-02  0.144E-02
   2.267  0.171E+00  0.168E+00  0.146E-02  0.146E-02
   2.277  0.165E+00  0.162E+00  0.149E-02  0.149E-02
   2.287  0.158E+00  0.155E+00  0.152E-02  0.152E-02
   2.297  0.150E+00  0.147E+00  0.155E-02  0.155E-02
   2.307  0.141E+00  0.138E+00  0.157E-02  0.157E-02
   2.317  0.132E+00  0.129E+00  0.158E-02  0.158E-02
   2.327  0.122E+00  0.119E+00  0.159E-02  0.159E-02
   2.337  0.112E+00  0.108E+00  0.159E-02  0.159E-02
   2.347  0.101E+00  0.982E-01  0.158E-02  0.158E-02
   2.357  0.911E-01  0.880E-01  0.156E-02  0.156E-02
   2.367  0.811E-01  0.780E-01  0.153E-02  0.153E-02
   2.377  0.715E-01  0.685E-01  0.150E-02  0.150E-02
   2.387  0.625E-01  0.596E-01  0.146E-02  0.146E-02
   2.397  0.542E-01  0.513E-01  0.143E-02  0.143E-02
   2.407  0.466E-01  0.438E-01  0.139E-02  0.139E-02
   2.417  0.397E-01  0.370E-01  0.136E-02  0.136E-02
   2.427  0.337E-01  0.310E-01  0.133E-02  0.133E-02
   2.437  0.284E-01  0.258E-01  0.132E-02  0.132E-02
   2.447  0.240E-01  0.214E-01  0.132E-02  0.132E-02
   2.457  0.203E-01  0.176E-01  0.133E-02  0.133E-02
   2.467  0.173E-01  0.146E-01  0.136E-02  0.136E-02
   2.477  0.151E-01  0.123E-01  0.140E-02  0.140E-02
   2.487  0.135E-01  0.105E-01  0.146E-02  0.146E-02
   2.497  0.125E-01  0.938E-02  0.154E-02  0.154E-02
   2.507  0.121E-01  0.879E-02  0.164E-02  0.164E-02
   2.517  0.122E-01  0.875E-02  0.174E-02  0.174E-02
   2.527  0.130E-01  0.926E-02  0.186E-02  0.186E-02
   2.537  0.143E-01  0.103E-01  0.199E-02  0.199E-02
   2.547  0.162E-01  0.120E-01  0.212E-02  0.212E-02
   2.557  0.187E-01  0.142E-01  0.226E-02  0.226E-02
   2.567  0.218E-01  0.170E-01  0.239E-02  0.239E-02
   2.577  0.256E-01  0.205E-01  0.252E-02  0.252E-02
   2.587  0.300E-01  0.247E-01  0.264E-02  0.264E-02
   2.597  0.351E-01  0.296E-01  0.275E-02  0.275E-02
   2.607  0.409E-01  0.352E-01  0.285E-02  0.285E-02
   2.617  0.474E-01  0.416E-01  0.294E-02  0.294E-02
   2.627  0.546E-01  0.486E-01  0.301E-02  0.301E-02
   2.637  0.624E-01  0.563E-01  0.306E-02  0.306E-02
   2.647  0.707E-01  0.645E-01  0.311E-02  0.311E-02
   2.657  0.795E-01  0.732E-01  0.314E-02  0.314E-02
   2.667  0.886E-01  0.823E-01  0.316E-02  0.316E-02
   2.677  0.978E-01  0.915E-01  0.318E-02  0.318E-02
   2.687  0.107E+00  0.101E+00  0.319E-02  0.319E-02
   2.697  0.116E+00  0.110E+00  0.319E-02  0.319E-02
   2.707  0.124E+00  0.118E+00  0.319E-02  0.319E-02
   2.717  0.132E+00  0.126E+00  0.320E-02  0.320E-02
   2.727  0.139E+00  0.133E+00  0.320E-02  0.320E-02
   2.737  0.145E+00  0.138E+00  0.320E-02  0.320E-02
   2.747  0.149E+00  0.143E+00  0.320E-02  0.320E-02
   2.757  0.152E+00  0.146E+00  0.320E-02  0.320E-02
   2.767  0.154E+00  0.148E+00  0.319E-02  0.319E-02
   2.777  0.154E+00  0.148E+00  0.318E-02  0.318E-02
   2.787  0.153E+00  0.146E+00  0.315E-02  0.315E-02
   2.797  0.149E+00  0.143E+00  0.312E-02  0.312E-02
   2.807  0.145E+00  0.139E+00  0.307E-02  0.307E-02
   2.817  0.139E+00  0.133E+00  0.300E-02  0.300E-02
   2.827  0.132E+00  0.126E+00  0.292E-02  0.292E-02
   2.837  0.124E+00  0.118E+00  0.282E-02  0.282E-02
   2.847  0.116E+00  0.110E+00  0.271E-02  0.271E-02
   2.857  0.106E+00  0.101E+00  0.258E-02  0.258E-02
   2.867  0.970E-01  0.922E-01  0.244E-02  0.244E-02
   2.877  0.876E-01  0.830E-01  0.229E-02  0.229E-02
   2.887  0.783E-01  0.741E-01  0.212E-02  0.212E-02
   2.897  0.694E-01  0.655E-01  0.196E-02  0.196E-02
   2.907  0.609E-01  0.573E-01  0.179E-02  0.179E-02
   2.917  0.530E-01  0.497E-01  0.162E-02  0.162E-02
   2.927  0.457E-01  0.428E-01  0.146E-02  0.146E-02
   2.937  0.392E-01  0.366E-01  0.130E-02  0.130E-02
   2.947  0.335E-01  0.311E-01  0.115E-02  0.115E-02
   2.957  0.285E-01  0.264E-01  0.102E-02  0.102E-02
   2.967  0.242E-01  0.224E-01  0.900E-03  0.900E-03
   2.977  0.208E-01  0.192E-01  0.795E-03  0.795E-03
   2.987  0.180E-01  0.166E-01  0.707E-03  0.707E-03
   2.997  0.160E-01  0.148E-01  0.634E-03  0.634E-03
   3.007  0.147E-01  0.136E-01  0.578E-03  0.578E-03
   3.017  0.141E-01  0.130E-01  0.539E-03  0.539E-03
   3.027  0.141E-01  0.131E-01  0.515E-03  0.515E-03
   3.037  0.148E-01  0.138E-01  0.506E-03  0.506E-03
   3.047  0.162E-01  0.152E-01  0.510E-03  0.510E-03
   3.057  0.184E-01  0.173E-01  0.527E-03  0.527E-03
   3.067  0.212E-01  0.201E-01  0.555E-03  0.555E-03
   3.077  0.248E-01  0.237E-01  0.592E-03  0.592E-03
   3.087  0.292E-01  0.280E-01  0.636E-03  0.636E-03
   3.097  0.344E-01  0.330E-01  0.686E-03  0.686E-03
   3.107  0.404E-01  0.389E-01  0.740E-03  0.740E-03
   3.117  0.472E-01  0.456E-01  0.796E-03  0.796E-03
   3.127  0.546E-01  0.529E-01  0.853E-03  0.853E-03
   3.137  0.628E-01  0.610E-01  0.909E-03  0.909E-03
   3.147  0.716E-01  0.697E-01  0.962E-03  0.962E-03
   3.157  0.808E-01  0.788E-01  0.101E-02  0.101E-02
   3.167  0.904E-01  0.882E-01  0.106E-02  0.106E-02
   3.177  0.100E+00  0.979E-01  0.110E-02  0.110E-02
   3.187  0.110E+00  0.107E+00  0.114E-02  0.114E-02
   3.197  0.119E+00  0.117E+00  0.117E-02  0.117E-02
   3.207  0.128E+00  0.126E+00  0.120E-02  0.120E-02
   3.217  0.137E+00  0.134E+00  0.123E-02  0.123E-02
   3.227  0.144E+00  0.142E+00  0.126E-02  0.126E-02
   3.237  0.151E+00  0.149E+00  0.130E-02  0.130E-02
   3.247  0.157E+00  0.154E+00  0.133E-02  0.133E-02
   3.257  0.161E+00  0.159E+00  0.137E-02  0.137E-02
   3.267  0.165E+00  0.162E+00  0.142E-02  0.142E-02
   3.277  0.167E+00  0.164E+00  0.147E-02  0.147E-02
   3.287  0.169E+00  0.166E+00  0.154E-02  0.154E-02
   3.297  0.169E+00  0.166E+00  0.162E-02  0.162E-02
   3.307  0.169E+00  0.165E+00  0.170E-02  0.170E-02
   3.317  0.168E+00  0.164E+00  0.180E-02  0.180E-02
   3.327  0.167E+00  0.163E+00  0.190E-02  0.190E-02
   3.337  0.165E+00  0.161E+00  0.202E-02  0.202E-02
   3.347  0.164E+00  0.159E+00  0.214E-02  0.214E-02
   3.357  0.162E+00  0.158E+00  0.226E-02  0.226E-02
   3.367  0.161E+00  0.156E+00  0.238E-02  0.238E-02
   3.377  0.160E+00  0.155E+00  0.250E-02  0.250E-02
   3.387  0.160E+00  0.154E+00  0.262E-02  0.262E-02
   3.397  0.159E+00  0.154E+00  0.272E-02  0.272E-02
   3.407  0.160E+00  0.154E+00  0.282E-02  0.282E-02
   3.417  0.160E+00  0.154E+00  0.290E-02  0.290E-02
   3.427  0.160E+00  0.154E+00  0.296E-02  0.296E-02
   3.437  0.160E+00  0.154E+00  0.300E-02  0.300E-02
   3.447  0.160E+00  0.154E+00  0.302E-02  0.302E-02
   3.457  0.160E+00  0.154E+00  0.301E-02  0.301E-02
   3.467  0.159E+00  0.153E+00  0.299E-02  0.299E-02
   3.477  0.157E+00  0.151E+00  0.294E-02  0.294E-02
   3.487  0.154E+00  0.148E+00  0.287E-02  0.287E-02
   3.497  0.150E+00  0.145E+00  0.278E-02  0.278E-02
   3.507  0.146E+00  0.140E+00  0.267E-02  0.267E-02
   3.517  0.140E+00  0.135E+00  0.255E-02  0.255E-02
   3.527  0.134E+00  0.129E+00  0.242E-02  0.242E-02
   3.537  0.127E+00  0.122E+00  0.229E-02  0.229E-02
   3.547  0.119E+00  0.115E+00  0.215E-02  0.215E-02
   3.557  0.111E+00  0.107E+00  0.201E-02  0.201E-02
   3.567  0.102E+00  0.986E-01  0.188E-02  0.188E-02
   3.577  0.936E-01  0.901E-01  0.175E-02  0.175E-02
   3.587  0.848E-01  0.815E-01  0.164E-02  0.164E-02
   3.597  0.762E-01  0.731E-01  0.154E-02  0.154E-02
   3.607  0.679E-01  0.650E-01  0.146E-02  0.146E-02
   3.617  0.599E-01  0.572E-01  0.139E-02  0.139E-02
   3.627  0.525E-01  0.499E-01  0.134E-02  0.134E-02
   3.637  0.457E-01  0.431E-01  0.130E-02  0.130E-02
   3.647  0.395E-01  0.369E-01  0.128E-02  0.128E-02
   3.657  0.339E-01  0.314E-01  0.127E-02  0.127E-02
   3.667  0.290E-01  0.265E-01  0.128E-02  0.128E-02
   3.677  0.248E-01  0.222E-01  0.129E-02  0.129E-02
   3.687  0.212E-01  0.185E-01  0.131E-02  0.131E-02
   3.697  0.181E-01  0.154E-01  0.134E-02  0.134E-02
   3.707  0.156E-01  0.129E-01  0.136E-02  0.136E-02
   3.717  0.136E-01  0.108E-01  0.138E-02  0.138E-02
   3.727  0.120E-01  0.919E-02  0.140E-02  0.140E-02
   3.737  0.108E-01  0.795E-02  0.141E-02  0.141E-02
   3.747  0.989E-02  0.705E-02  0.142E-02  0.142E-02
   3.757  0.928E-02  0.645E-02  0.141E-02  0.141E-02
   3.767  0.890E-02  0.611E-02  0.139E-02  0.139E-02
   3.777  0.871E-02  0.598E-02  0.136E-02  0.136E-02
   3.787  0.868E-02  0.603E-02  0.132E-02  0.132E-02
   3.797  0.877E-02  0.623E-02  0.127E-02  0.127E-02
   3.807  0.897E-02  0.654E-02  0.121E-02  0.121E-02
   3.817  0.924E-02  0.695E-02  0.114E-02  0.114E-02
   3.827  0.957E-02  0.743E-02  0.107E-02  0.107E-02
   3.837  0.994E-02  0.796E-02  0.988E-03  0.988E-03
   3.847  0.103E-01  0.853E-02  0.905E-03  0.905E-03
   3.857  0.108E-01  0.911E-02  0.821E-03  0.821E-03
   3.867  0.112E-01  0.971E-02  0.738E-03  0.738E-03
   3.877  0.116E-01  0.103E-01  0.658E-03  0.658E-03
   3.887  0.121E-01  0.109E-01  0.582E-03  0.582E-03
   3.897  0.126E-01  0.116E-01  0.512E-03  0.512E-03
   3.907  0.131E-01  0.122E-01  0.449E-03  0.449E-03
   3.917  0.137E-01  0.130E-01  0.394E-03  0.394E-03
   3.927  0.145E-01  0.138E-01  0.349E-03  0.349E-03
   3.937  0.153E-01  0.147E-01  0.314E-03  0.314E-03
   3.947  0.164E-01  0.158E-01  0.291E-03  0.291E-03
   3.957  0.177E-01  0.172E-01  0.281E-03  0.281E-03
   3.967  0.194E-01  0.188E-01  0.285E-03  0.285E-03
   3.977  0.215E-01  0.209E-01  0.306E-03  0.306E-03
   3.987  0.240E-01  0.233E-01  0.345E-03  0.345E-03
   3.997  0.271E-01  0.263E-01  0.406E-03  0.406E-03
   4.007  0.308E-01  0.298E-01  0.492E-03  0.492E-03
   4.017  0.352E-01  0.340E-01  0.608E-03  0.608E-03
   4.027  0.404E-01  0.388E-01  0.756E-03  0.756E-03
   4.037  0.463E-01  0.444E-01  0.944E-03  0.944E-03
   4.047  0.529E-01  0.506E-01  0.118E-02  0.118E-02
   4.057  0.604E-01  0.574E-01  0.146E-02  0.146E-02
   4.067  0.685E-01  0.649E-01  0.179E-02  0.179E-02
   4.077  0.772E-01  0.728E-01  0.219E-02  0.219E-02
   4.087  0.865E-01  0.812E-01  0.265E-02  0.265E-02
   4.097  0.961E-01  0.897E-01  0.319E-02  0.319E-02
   4.107  0.106E+00  0.983E-01  0.379E-02  0.379E-02
   4.117  0.116E+00  0.107E+00  0.447E-02  0.447E-02
   4.127  0.125E+00  0.115E+00  0.522E-02  0.522E-02
   4.137  0.134E+00  0.122E+00  0.605E-02  0.605E-02
   4.147  0.143E+00  0.129E+00  0.694E-02  0.694E-02
   4.157  0.150E+00  0.134E+00  0.789E-02  0.789E-02
   4.167  0.156E+00  0.139E+00  0.889E-02  0.889E-02
   4.177  0.162E+00  0.142E+00  0.993E-02  0.993E-02
   4.187  0.165E+00  0.143E+00  0.110E-01  0.110E-01
   4.197  0.168E+00  0.144E+00  0.121E-01  0.121E-01
   4.207  0.169E+00  0.142E+00  0.132E-01  0.132E-01
   4.217  0.168E+00  0.140E+00  0.142E-01  0.142E-01
   4.227  0.166E+00  0.136E+00  0.152E-01  0.152E-01
   4.237  0.163E+00  0.131E+00  0.162E-01  0.162E-01
   4.247  0.159E+00  0.124E+00  0.171E-01  0.171E-01
   4.257  0.153E+00  0.117E+00  0.179E-01  0.179E-01
   4.267  0.147E+00  0.110E+00  0.187E-01  0.187E-01
   4.277  0.141E+00  0.102E+00  0.193E-01  0.193E-01
   4.287  0.134E+00  0.938E-01  0.199E-01  0.199E-01
   4.297  0.126E+00  0.857E-01  0.204E-01  0.204E-01
   4.307  0.119E+00  0.778E-01  0.207E-01  0.207E-01
   4.317  0.112E+00  0.703E-01  0.210E-01  0.210E-01
   4.327  0.106E+00  0.632E-01  0.212E-01  0.212E-01
   4.337  0.995E-01  0.567E-01  0.214E-01  0.214E-01
   4.347  0.939E-01  0.508E-01  0.215E-01  0.215E-01
   4.357  0.889E-01  0.456E-01  0.216E-01  0.216E-01
   4.367  0.845E-01  0.410E-01  0.218E-01  0.218E-01
   4.377  0.808E-01  0.369E-01  0.219E-01  0.219E-01
   4.387  0.777E-01  0.335E-01  0.221E-01  0.221E-01
   4.397  0.753E-01  0.305E-01  0.224E-01  0.224E-01
   4.407  0.736E-01  0.279E-01  0.228E-01  0.228E-01
   4.417  0.725E-01  0.257E-01  0.234E-01  0.234E-01
   4.427  0.720E-01  0.238E-01  0.241E-01  0.241E-01
   4.437  0.721E-01  0.220E-01  0.250E-01  0.250E-01
   4.447  0.728E-01  0.205E-01  0.261E-01  0.261E-01
   4.457  0.739E-01  0.191E-01  0.274E-01  0.274E-01
   4.467  0.756E-01  0.177E-01  0.289E-01  0.289E-01
   4.477  0.777E-01  0.164E-01  0.306E-01  0.306E-01
   4.487  0.802E-01  0.151E-01  0.325E-01  0.325E-01
   4.497  0.830E-01  0.139E-01  0.345E-01  0.345E-01
   4.507  0.860E-01  0.127E-01  0.367E-01  0.367E-01
   4.517  0.893E-01  0.115E-01  0.389E-01  0.389E-01
   4.527  0.926E-01  0.103E-01  0.411E-01  0.411E-01
   4.537  0.958E-01  0.919E-02  0.433E-01  0.433E-01
   4.547  0.990E-01  0.812E-02  0.454E-01  0.454E-01
   4.557  0.102E+00  0.711E-02  0.474E-01  0.474E-01
   4.567  0.105E+00  0.617E-02  0.492E-01  0.492E-01
   4.577  0.107E+00  0.530E-02  0.508E-01  0.508E-01
   4.587  0.109E+00  0.450E-02  0.520E-01  0.520E-01
   4.597  0.110E+00  0.379E-02  0.530E-01  0.530E-01
   4.607  0.110E+00  0.316E-02  0.536E-01  0.536E-01
   4.617  0.110E+00  0.261E-02  0.538E-01  0.538E-01
   4.627  0.110E+00  0.213E-02  0.537E-01  0.537E-01
   4.637  0.108E+00  0.173E-02  0.533E-01  0.533E-01
   4.647  0.106E+00  0.138E-02  0.525E-01  0.525E-01
   4.657  0.104E+00  0.110E-02  0.513E-01  0.513E-01
   4.667  0.101E+00  0.864E-03  0.499E-01  0.499E-01
   4.677  0.971E-01  0.676E-03  0.482E-01  0.482E-01
   4.687  0.932E-01  0.526E-03  0.463E-01  0.463E-01
   4.697  0.890E-01  0.409E-03  0.443E-01  0.443E-01
   4.707  0.845E-01  0.319E-03  0.421E-01  0.421E-01
   4.717  0.799E-01  0.253E-03  0.398E-01  0.398E-01
   4.727  0.753E-01  0.207E-03  0.375E-01  0.375E-01
   4.737  0.706E-01  0.177E-03  0.352E-01  0.352E-01
   4.747  0.660E-01  0.160E-03  0.329E-01  0.329E-01
   4.757  0.616E-01  0.155E-03  0.307E-01  0.307E-01
   4.767  0.573E-01  0.159E-03  0.286E-01  0.286E-01
   4.777  0.533E-01  0.173E-03  0.266E-01  0.266E-01
   4.787  0.496E-01  0.194E-03  0.247E-01  0.247E-01
   4.797  0.462E-01  0.222E-03  0.230E-01  0.230E-01
   4.807  0.431E-01  0.256E-03  0.214E-01  0.214E-01
   4.817  0.404E-01  0.297E-03  0.201E-01  0.201E-01
   4.827  0.381E-01  0.342E-03  0.189E-01  0.189E-01
   4.837  0.360E-01  0.392E-03  0.178E-01  0.178E-01
   4.847  0.344E-01  0.446E-03  0.170E-01  0.170E-01
   4.857  0.330E-01  0.502E-03  0.162E-01  0.162E-01
   4.867  0.319E-01  0.561E-03  0.157E-01  0.157E-01
   4.877  0.311E-01  0.622E-03  0.152E-01  0.152E-01
   4.887  0.304E-01  0.682E-03  0.149E-01  0.149E-01
   4.897  0.299E-01  0.741E-03  0.146E-01  0.146E-01
   4.907  0.295E-01  0.797E-03  0.144E-01  0.144E-01
   4.917  0.292E-01  0.850E-03  0.142E-01  0.142E-01
   4.927  0.289E-01  0.898E-03  0.140E-01  0.140E-01
   4.937  0.285E-01  0.941E-03  0.138E-01  0.138E-01
   4.947  0.280E-01  0.976E-03  0.135E-01  0.135E-01
   4.957  0.275E-01  0.100E-02  0.132E-01  0.132E-01
   4.967  0.268E-01  0.102E-02  0.129E-01  0.129E-01
   4.977  0.259E-01  0.104E-02  0.124E-01  0.124E-01
   4.987  0.249E-01  0.104E-02  0.119E-01  0.119E-01
   4.997  0.238E-01  0.104E-02  0.114E-01  0.114E-01
   5.007  0.225E-01  0.103E-02  0.107E-01  0.107E-01
   5.017  0.211E-01  0.101E-02  0.100E-01  0.100E-01
   5.027  0.196E-01  0.995E-03  0.931E-02  0.931E-02
   5.037  0.181E-01  0.971E-03  0.855E-02  0.855E-02
   5.047  0.165E-01  0.946E-03  0.778E-02  0.778E-02
   5.057  0.150E-01  0.920E-03  0.702E-02  0.702E-02
   5.067  0.134E-01  0.895E-03  0.626E-02  0.626E-02
   5.077  0.119E-01  0.872E-03  0.554E-02  0.554E-02
   5.087  0.106E-01  0.851E-03  0.485E-02  0.485E-02
   5.097  0.927E-02  0.834E-03  0.422E-02  0.422E-02
   5.107  0.810E-02  0.821E-03  0.364E-02  0.364E-02
   5.117  0.705E-02  0.811E-03  0.312E-02  0.312E-02
   5.127  0.615E-02  0.806E-03  0.267E-02  0.267E-02
   5.137  0.538E-02  0.803E-03  0.229E-02  0.229E-02
   5.147  0.475E-02  0.804E-03  0.197E-02  0.197E-02
   5.157  0.426E-02  0.806E-03  0.173E-02  0.173E-02
   5.167  0.392E-02  0.809E-03  0.156E-02  0.156E-02
   5.177  0.373E-02  0.811E-03  0.146E-02  0.146E-02
   5.187  0.368E-02  0.812E-03  0.144E-02  0.144E-02
   5.197  0.380E-02  0.810E-03  0.149E-02  0.149E-02
   5.207  0.407E-02  0.804E-03  0.163E-02  0.163E-02
   5.217  0.453E-02  0.794E-03  0.187E-02  0.187E-02
   5.227  0.517E-02  0.779E-03  0.220E-02  0.220E-02
   5.237  0.603E-02  0.758E-03  0.264E-02  0.264E-02
   5.247  0.712E-02  0.732E-03  0.320E-02  0.320E-02
   5.257  0.848E-02  0.702E-03  0.389E-02  0.389E-02
   5.267  0.101E-01  0.666E-03  0.472E-02  0.472E-02
   5.277  0.120E-01  0.627E-03  0.571E-02  0.571E-02
   5.287  0.143E-01  0.584E-03  0.687E-02  0.687E-02
   5.297  0.169E-01  0.540E-03  0.819E-02  0.819E-02
   5.307  0.199E-01  0.494E-03  0.970E-02  0.970E-02
   5.317  0.232E-01  0.449E-03  0.114E-01  0.114E-01
   5.327  0.269E-01  0.405E-03  0.133E-01  0.133E-01
   5.337  0.309E-01  0.362E-03  0.153E-01  0.153E-01
   5.347  0.353E-01  0.323E-03  0.175E-01  0.175E-01
   5.357  0.399E-01  0.287E-03  0.198E-01  0.198E-01
   5.367  0.447E-01  0.256E-03  0.222E-01  0.222E-01
   5.377  0.497E-01  0.230E-03  0.247E-01  0.247E-01
   5.387  0.548E-01  0.209E-03  0.273E-01  0.273E-01
   5.397  0.598E-01  0.194E-03  0.298E-01  0.298E-01
   5.407  0.648E-01  0.186E-03  0.323E-01  0.323E-01
   5.417  0.695E-01  0.184E-03  0.347E-01  0.347E-01
   5.427  0.740E-01  0.188E-03  0.369E-01  0.369E-01
   5.437  0.781E-01  0.198E-03  0.389E-01  0.389E-01
   5.447  0.817E-01  0.215E-03  0.407E-01  0.407E-01
   5.457  0.847E-01  0.237E-03  0.423E-01  0.423E-01
   5.467  0.872E-01  0.266E-03  0.435E-01  0.435E-01
   5.477  0.889E-01  0.299E-03  0.443E-01  0.443E-01
   5.487  0.900E-01  0.337E-03  0.448E-01  0.448E-01
   5.497  0.903E-01  0.379E-03  0.450E-01  0.450E-01
   5.507  0.900E-01  0.423E-03  0.448E-01  0.448E-01
   5.517  0.889E-01  0.469E-03  0.442E-01  0.442E-01
   5.527  0.871E-01  0.516E-03  0.433E-01  0.433E-01
   5.537  0.848E-01  0.563E-03  0.421E-01  0.421E-01
   5.547  0.819E-01  0.608E-03  0.406E-01  0.406E-01
   5.557  0.785E-01  0.650E-03  0.389E-01  0.389E-01
   5.567  0.747E-01  0.687E-03  0.370E-01  0.370E-01
   5.577  0.707E-01  0.719E-03  0.350E-01  0.350E-01
   5.587  0.664E-01  0.745E-03  0.328E-01  0.328E-01
   5.597  0.620E-01  0.763E-03  0.306E-01  0.306E-01
   5.607  0.576E-01  0.773E-03  0.284E-01  0.284E-01
   5.617  0.533E-01  0.776E-03  0.262E-01  0.262E-01
   5.627  0.491E-01  0.770E-03  0.242E-01  0.242E-01
   5.637  0.451E-01  0.755E-03  0.222E-01  0.222E-01
   5.647  0.413E-01  0.733E-03  0.203E-01  0.203E-01
   5.657  0.379E-01  0.704E-03  0.186E-01  0.186E-01
   5.667  0.348E-01  0.669E-03  0.171E-01  0.171E-01
   5.677  0.321E-01  0.629E-03  0.157E-01  0.157E-01
   5.687  0.296E-01  0.585E-03  0.145E-01  0.145E-01
   5.697  0.276E-01  0.538E-03  0.135E-01  0.135E-01
   5.707  0.258E-01  0.490E-03  0.127E-01  0.127E-01
   5.717  0.243E-01  0.441E-03  0.119E-01  0.119E-01
   5.727  0.231E-01  0.393E-03  0.114E-01  0.114E-01
   5.737  0.221E-01  0.346E-03  0.109E-01  0.109E-01
   5.747  0.212E-01  0.302E-03  0.105E-01  0.105E-01
   5.757  0.205E-01  0.261E-03  0.101E-01  0.101E-01
   5.767  0.198E-01  0.223E-03  0.978E-02  0.978E-02
   5.777  0.191E-01  0.189E-03  0.948E-02  0.948E-02
   5.787  0.185E-01  0.159E-03  0.917E-02  0.917E-02
   5.797  0.178E-01  0.133E-03  0.885E-02  0.885E-02
   5.807  0.171E-01  0.110E-03  0.851E-02  0.851E-02
   5.817  0.164E-01  0.914E-04  0.813E-02  0.813E-02
   5.827  0.155E-01  0.761E-04  0.772E-02  0.772E-02
   5.837  0.146E-01  0.642E-04  0.728E-02  0.728E-02
   5.847  0.137E-01  0.553E-04  0.681E-02  0.681E-02
   5.857  0.127E-01  0.492E-04  0.631E-02  0.631E-02
   5.867  0.116E-01  0.458E-04  0.580E-02  0.580E-02
   5.877  0.106E-01  0.448E-04  0.528E-02  0.528E-02
   5.887  0.956E-02  0.460E-04  0.475E-02  0.475E-02
   5.897  0.853E-02  0.495E-04  0.424E-02  0.424E-02
   5.907  0.755E-02  0.551E-04  0.375E-02  0.375E-02
   5.917  0.662E-02  0.627E-04  0.328E-02  0.328E-02
   5.927  0.575E-02  0.725E-04  0.284E-02  0.284E-02
   5.937  0.495E-02  0.844E-04  0.243E-02  0.243E-02
   5.947  0.424E-02  0.984E-04  0.207E-02  0.207E-02
   5.957  0.360E-02  0.115E-03  0.174E-02  0.174E-02
   5.967  0.305E-02  0.133E-03  0.146E-02  0.146E-02
   5.977  0.258E-02  0.154E-03  0.121E-02  0.121E-02
   5.987  0.218E-02  0.177E-03  0.100E-02  0.100E-02
   5.997  0.187E-02  0.202E-03  0.833E-03  0.833E-03
   6.007  0.162E-02  0.230E-03  0.696E-03  0.696E-03
   6.017  0.144E-02  0.260E-03  0.590E-03  0.590E-03
   6.027  0.132E-02  0.291E-03  0.512E-03  0.512E-03
   6.037  0.125E-02  0.324E-03  0.461E-03  0.461E-03
   6.047  0.122E-02  0.358E-03  0.432E-03  0.432E-03
   6.057  0.124E-02  0.393E-03  0.423E-03  0.423E-03
   6.067  0.129E-02  0.428E-03  0.433E-03  0.433E-03
   6.077  0.138E-02  0.462E-03  0.458E-03  0.458E-03
   6.087  0.149E-02  0.495E-03  0.496E-03  0.496E-03
   6.097  0.162E-02  0.527E-03  0.546E-03  0.546E-03
   6.107  0.177E-02  0.556E-03  0.605E-03  0.605E-03
   6.117  0.192E-02  0.581E-03  0.671E-03  0.671E-03
   6.127  0.209E-02  0.603E-03  0.742E-03  0.742E-03
   6.137  0.225E-02  0.620E-03  0.816E-03  0.816E-03
   6.147  0.241E-02  0.632E-03  0.890E-03  0.890E-03
   6.157  0.256E-02  0.638E-03  0.963E-03  0.963E-03
   6.167  0.270E-02  0.640E-03  0.103E-02  0.103E-02
   6.177  0.283E-02  0.636E-03  0.109E-02  0.109E-02
   6.187  0.293E-02  0.627E-03  0.115E-02  0.115E-02
   6.197  0.300E-02  0.614E-03  0.120E-02  0.120E-02
   6.207  0.306E-02  0.596E-03  0.123E-02  0.123E-02
   6.217  0.308E-02  0.575E-03  0.125E-02  0.125E-02
   6.227  0.308E-02  0.552E-03  0.126E-02  0.126E-02
   6.237  0.305E-02  0.527E-03  0.126E-02  0.126E-02
   6.247  0.299E-02  0.502E-03  0.124E-02  0.124E-02
   6.257  0.291E-02  0.478E-03  0.122E-02  0.122E-02
   6.267  0.281E-02  0.455E-03  0.118E-02  0.118E-02
   6.277  0.269E-02  0.434E-03  0.113E-02  0.113E-02
   6.287  0.256E-02  0.417E-03  0.107E-02  0.107E-02
   6.297  0.242E-02  0.404E-03  0.101E-02  0.101E-02
   6.307  0.228E-02  0.394E-03  0.941E-03  0.941E-03
   6.317  0.213E-02  0.390E-03  0.871E-03  0.871E-03
   6.327  0.199E-02  0.389E-03  0.801E-03  0.801E-03
   6.337  0.186E-02  0.393E-03  0.734E-03  0.734E-03
   6.347  0.174E-02  0.401E-03  0.670E-03  0.670E-03
   6.357  0.164E-02  0.412E-03  0.613E-03  0.613E-03
   6.367  0.156E-02  0.426E-03  0.565E-03  0.565E-03
   6.377  0.150E-02  0.441E-03  0.528E-03  0.528E-03
   6.387  0.147E-02  0.457E-03  0.504E-03  0.504E-03
   6.397  0.147E-02  0.472E-03  0.497E-03  0.497E-03
   6.407  0.151E-02  0.486E-03  0.510E-03  0.510E-03
   6.417  0.159E-02  0.498E-03  0.547E-03  0.547E-03
   6.427  0.173E-02  0.507E-03  0.612E-03  0.612E-03
   6.437  0.193E-02  0.512E-03  0.711E-03  0.711E-03
   6.447  0.221E-02  0.513E-03  0.851E-03  0.851E-03
   6.457  0.259E-02  0.509E-03  0.104E-02  0.104E-02
   6.467  0.307E-02  0.501E-03  0.129E-02  0.129E-02
   6.477  0.369E-02  0.488E-03  0.160E-02  0.160E-02
   6.487  0.445E-02  0.470E-03  0.199E-02  0.199E-02
   6.497  0.540E-02  0.449E-03  0.248E-02  0.248E-02
   6.507  0.654E-02  0.424E-03  0.306E-02  0.306E-02
   6.517  0.792E-02  0.396E-03  0.376E-02  0.376E-02
   6.527  0.954E-02  0.366E-03  0.459E-02  0.459E-02
   6.537  0.114E-01  0.335E-03  0.555E-02  0.555E-02
   6.547  0.136E-01  0.304E-03  0.666E-02  0.666E-02
   6.557  0.161E-01  0.272E-03  0.791E-02  0.791E-02
   6.567  0.189E-01  0.241E-03  0.932E-02  0.932E-02
   6.577  0.220E-01  0.212E-03  0.109E-01  0.109E-01
   6.587  0.253E-01  0.184E-03  0.126E-01  0.126E-01
   6.597  0.289E-01  0.158E-03  0.144E-01  0.144E-01
   6.607  0.328E-01  0.135E-03  0.163E-01  0.163E-01
   6.617  0.368E-01  0.114E-03  0.183E-01  0.183E-01
   6.627  0.409E-01  0.955E-04  0.204E-01  0.204E-01
   6.637  0.450E-01  0.799E-04  0.225E-01  0.225E-01
   6.647  0.491E-01  0.669E-04  0.245E-01  0.245E-01
   6.657  0.531E-01  0.565E-04  0.265E-01  0.265E-01
   6.667  0.569E-01  0.486E-04  0.284E-01  0.284E-01
   6.677  0.605E-01  0.431E-04  0.302E-01  0.302E-01
   6.687  0.637E-01  0.401E-04  0.318E-01  0.318E-01
   6.697  0.665E-01  0.394E-04  0.332E-01  0.332E-01
   6.707  0.689E-01  0.410E-04  0.344E-01  0.344E-01
   6.717  0.708E-01  0.451E-04  0.354E-01  0.354E-01
   6.727  0.723E-01  0.517E-04  0.361E-01  0.361E-01
   6.737  0.732E-01  0.608E-04  0.366E-01  0.366E-01
   6.747  0.737E-01  0.725E-04  0.368E-01  0.368E-01
   6.757  0.738E-01  0.870E-04  0.369E-01  0.369E-01
   6.767  0.735E-01  0.104E-03  0.367E-01  0.367E-01
   6.777  0.728E-01  0.124E-03  0.363E-01  0.363E-01
   6.787  0.717E-01  0.147E-03  0.358E-01  0.358E-01
   6.797  0.704E-01  0.173E-03  0.351E-01  0.351E-01
   6.807  0.688E-01  0.201E-03  0.343E-01  0.343E-01
   6.817  0.671E-01  0.232E-03  0.334E-01  0.334E-01
   6.827  0.651E-01  0.264E-03  0.324E-01  0.324E-01
   6.837  0.630E-01  0.298E-03  0.313E-01  0.313E-01
   6.847  0.607E-01  0.332E-03  0.302E-01  0.302E-01
   6.857  0.583E-01  0.367E-03  0.290E-01  0.290E-01
   6.867  0.558E-01  0.401E-03  0.277E-01  0.277E-01
   6.877  0.531E-01  0.433E-03  0.264E-01  0.264E-01
   6.887  0.504E-01  0.463E-03  0.250E-01  0.250E-01
   6.897  0.476E-01  0.490E-03  0.235E-01  0.235E-01
   6.907  0.446E-01  0.513E-03  0.221E-01  0.221E-01
   6.917  0.417E-01  0.531E-03  0.206E-01  0.206E-01
   6.927  0.386E-01  0.544E-03  0.190E-01  0.190E-01
   6.937  0.356E-01  0.552E-03  0.175E-01  0.175E-01
   6.947  0.326E-01  0.554E-03  0.160E-01  0.160E-01
   6.957  0.296E-01  0.550E-03  0.145E-01  0.145E-01
   6.967  0.267E-01  0.540E-03  0.131E-01  0.131E-01
   6.977  0.238E-01  0.526E-03  0.117E-01  0.117E-01
   6.987  0.212E-01  0.507E-03  0.103E-01  0.103E-01
   6.997  0.187E-01  0.484E-03  0.908E-02  0.908E-02
   7.007  0.163E-01  0.458E-03  0.793E-02  0.793E-02
   7.017  0.142E-01  0.430E-03  0.687E-02  0.687E-02
   7.027  0.122E-01  0.400E-03  0.592E-02  0.592E-02
   7.037  0.105E-01  0.369E-03  0.507E-02  0.507E-02
   7.047  0.900E-02  0.339E-03  0.433E-02  0.433E-02
   7.057  0.768E-02  0.309E-03  0.369E-02  0.369E-02
   7.067  0.655E-02  0.281E-03  0.314E-02  0.314E-02
   7.077  0.560E-02  0.255E-03  0.267E-02  0.267E-02
   7.087  0.480E-02  0.231E-03  0.228E-02  0.228E-02
   7.097  0.414E-02  0.209E-03  0.197E-02  0.197E-02
   7.107  0.360E-02  0.190E-03  0.171E-02  0.171E-02
   7.117  0.317E-02  0.174E-03  0.150E-02  0.150E-02
   7.127  0.282E-02  0.160E-03  0.133E-02  0.133E-02
   7.137  0.253E-02  0.149E-03  0.119E-02  0.119E-02
   7.147  0.230E-02  0.140E-03  0.108E-02  0.108E-02
   7.157  0.211E-02  0.133E-03  0.989E-03  0.989E-03
   7.167  0.195E-02  0.129E-03  0.911E-03  0.911E-03
   7.177  0.181E-02  0.126E-03  0.842E-03  0.842E-03
   7.187  0.169E-02  0.125E-03  0.781E-03  0.781E-03
   7.197  0.157E-02  0.126E-03  0.723E-03  0.723E-03
   7.207  0.146E-02  0.129E-03  0.667E-03  0.667E-03
   7.217  0.136E-02  0.134E-03  0.614E-03  0.614E-03
   7.227  0.126E-02  0.141E-03  0.561E-03  0.561E-03
   7.237  0.117E-02  0.149E-03  0.509E-03  0.509E-03
   7.247  0.108E-02  0.160E-03  0.458E-03  0.458E-03
   7.257  0.991E-03  0.172E-03  0.409E-03  0.409E-03
   7.267  0.912E-03  0.187E-03  0.362E-03  0.362E-03
   7.277  0.840E-03  0.203E-03  0.318E-03  0.318E-03
   7.287  0.775E-03  0.222E-03  0.277E-03  0.277E-03
   7.297  0.719E-03  0.241E-03  0.239E-03  0.239E-03
   7.307  0.671E-03  0.262E-03  0.204E-03  0.204E-03
   7.317  0.631E-03  0.284E-03  0.174E-03  0.174E-03
   7.327  0.600E-03  0.306E-03  0.147E-03  0.147E-03
   7.337  0.576E-03  0.328E-03  0.124E-03  0.124E-03
   7.347  0.558E-03  0.349E-03  0.105E-03  0.105E-03
   7.357  0.547E-03  0.369E-03  0.889E-04  0.889E-04
   7.367  0.540E-03  0.387E-03  0.764E-04  0.764E-04
   7.377  0.537E-03  0.403E-03  0.670E-04  0.670E-04
   7.387  0.537E-03  0.416E-03  0.604E-04  0.604E-04
   7.397  0.539E-03  0.427E-03  0.562E-04  0.562E-04
   7.407  0.543E-03  0.435E-03  0.542E-04  0.542E-04
   7.417  0.548E-03  0.439E-03  0.542E-04  0.542E-04
   7.427  0.553E-03  0.441E-03  0.560E-04  0.560E-04
   7.437  0.559E-03  0.441E-03  0.593E-04  0.593E-04
   7.447  0.566E-03  0.438E-03  0.641E-04  0.641E-04
   7.457  0.574E-03  0.434E-03  0.701E-04  0.701E-04
   7.467  0.583E-03  0.428E-03  0.774E-04  0.774E-04
   7.477  0.593E-03  0.421E-03  0.859E-04  0.859E-04
   7.487  0.605E-03  0.414E-03  0.955E-04  0.955E-04
   7.497  0.620E-03  0.408E-03  0.106E-03  0.106E-03
   7.507  0.639E-03  0.401E-03  0.119E-03  0.119E-03
   7.517  0.660E-03  0.396E-03  0.132E-03  0.132E-03
   7.527  0.686E-03  0.391E-03  0.147E-03  0.147E-03
   7.537  0.715E-03  0.387E-03  0.164E-03  0.164E-03
   7.547  0.749E-03  0.385E-03  0.182E-03  0.182E-03
   7.557  0.788E-03  0.383E-03  0.202E-03  0.202E-03
   7.567  0.831E-03  0.382E-03  0.224E-03  0.224E-03
   7.577  0.878E-03  0.381E-03  0.248E-03  0.248E-03
   7.587  0.930E-03  0.381E-03  0.274E-03  0.274E-03
   7.597  0.985E-03  0.382E-03  0.302E-03  0.302E-03
   7.607  0.104E-02  0.383E-03  0.331E-03  0.331E-03
   7.617  0.111E-02  0.384E-03  0.362E-03  0.362E-03
   7.627  0.117E-02  0.386E-03  0.394E-03  0.394E-03
   7.637  0.124E-02  0.389E-03  0.428E-03  0.428E-03
   7.647  0.132E-02  0.392E-03  0.463E-03  0.463E-03
   7.657  0.140E-02  0.397E-03  0.499E-03  0.499E-03
   7.667  0.148E-02  0.404E-03  0.537E-03  0.537E-03
   7.677  0.156E-02  0.412E-03  0.576E-03  0.576E-03
   7.687  0.166E-02  0.423E-03  0.618E-03  0.618E-03
   7.697  0.176E-02  0.437E-03  0.661E-03  0.661E-03
   7.707  0.187E-02  0.453E-03  0.708E-03  0.708E-03
   7.717  0.199E-02  0.471E-03  0.758E-03  0.758E-03
   7.727  0.212E-02  0.492E-03  0.813E-03  0.813E-03
   7.737  0.226E-02  0.515E-03  0.873E-03  0.873E-03
   7.747  0.242E-02  0.539E-03  0.939E-03  0.939E-03
   7.757  0.259E-02  0.564E-03  0.101E-02  0.101E-02
   7.767  0.277E-02  0.589E-03  0.109E-02  0.109E-02
   7.777  0.297E-02  0.613E-03  0.118E-02  0.118E-02
   7.787  0.318E-02  0.635E-03  0.127E-02  0.127E-02
   7.797  0.340E-02  0.654E-03  0.137E-02  0.137E-02
   7.807  0.362E-02  0.670E-03  0.148E-02  0.148E-02
   7.817  0.385E-02  0.681E-03  0.159E-02  0.159E-02
   7.827  0.409E-02  0.688E-03  0.170E-02  0.170E-02
   7.837  0.432E-02  0.689E-03  0.182E-02  0.182E-02
   7.847  0.455E-02  0.686E-03  0.193E-02  0.193E-02
   7.857  0.477E-02  0.677E-03  0.204E-02  0.204E-02
   7.867  0.498E-02  0.663E-03  0.216E-02  0.216E-02
   7.877  0.518E-02  0.646E-03  0.226E-02  0.226E-02
   7.887  0.537E-02  0.626E-03  0.237E-02  0.237E-02
   7.897  0.556E-02  0.603E-03  0.248E-02  0.248E-02
   7.907  0.574E-02  0.579E-03  0.258E-02  0.258E-02
   7.917  0.594E-02  0.556E-03  0.269E-02  0.269E-02
   7.927  0.617E-02  0.533E-03  0.282E-02  0.282E-02
   7.937  0.643E-02  0.513E-03  0.296E-02  0.296E-02
   7.947  0.675E-02  0.497E-03  0.313E-02  0.313E-02
   7.957  0.714E-02  0.485E-03  0.333E-02  0.333E-02
   7.967  0.764E-02  0.477E-03  0.358E-02  0.358E-02
   7.977  0.826E-02  0.475E-03  0.389E-02  0.389E-02
   7.987  0.903E-02  0.479E-03  0.428E-02  0.428E-02
   7.997  0.998E-02  0.488E-03  0.475E-02  0.475E-02
   8.007  0.111E-01  0.503E-03  0.531E-02  0.531E-02
   8.017  0.125E-01  0.523E-03  0.599E-02  0.599E-02
   8.027  0.141E-01  0.546E-03  0.678E-02  0.678E-02
   8.037  0.160E-01  0.573E-03  0.771E-02  0.771E-02
   8.047  0.181E-01  0.602E-03  0.876E-02  0.876E-02
   8.057  0.205E-01  0.632E-03  0.995E-02  0.995E-02
   8.067  0.232E-01  0.662E-03  0.113E-01  0.113E-01
   8.077  0.261E-01  0.691E-03  0.127E-01  0.127E-01
   8.087  0.293E-01  0.716E-03  0.143E-01  0.143E-01
   8.097  0.326E-01  0.739E-03  0.159E-01  0.159E-01
   8.107  0.361E-01  0.756E-03  0.177E-01  0.177E-01
   8.117  0.397E-01  0.769E-03  0.194E-01  0.194E-01
   8.127  0.433E-01  0.776E-03  0.213E-01  0.213E-01
   8.137  0.469E-01  0.777E-03  0.231E-01  0.231E-01
   8.147  0.504E-01  0.772E-03  0.248E-01  0.248E-01
   8.157  0.537E-01  0.761E-03  0.265E-01  0.265E-01
   8.167  0.568E-01  0.746E-03  0.281E-01  0.281E-01
   8.177  0.596E-01  0.728E-03  0.295E-01  0.295E-01
   8.187  0.621E-01  0.706E-03  0.307E-01  0.307E-01
   8.197  0.640E-01  0.684E-03  0.317E-01  0.317E-01
   8.207  0.655E-01  0.662E-03  0.324E-01  0.324E-01
   8.217  0.665E-01  0.642E-03  0.329E-01  0.329E-01
   8.227  0.669E-01  0.626E-03  0.331E-01  0.331E-01
   8.237  0.667E-01  0.614E-03  0.330E-01  0.330E-01
   8.247  0.659E-01  0.609E-03  0.326E-01  0.326E-01
   8.257  0.646E-01  0.612E-03  0.320E-01  0.320E-01
   8.267  0.627E-01  0.624E-03  0.310E-01  0.310E-01
   8.277  0.603E-01  0.646E-03  0.299E-01  0.299E-01
   8.287  0.576E-01  0.677E-03  0.284E-01  0.284E-01
   8.297  0.544E-01  0.718E-03  0.269E-01  0.269E-01
   8.307  0.510E-01  0.769E-03  0.251E-01  0.251E-01
   8.317  0.474E-01  0.829E-03  0.233E-01  0.233E-01
   8.327  0.436E-01  0.897E-03  0.214E-01  0.214E-01
   8.337  0.398E-01  0.971E-03  0.194E-01  0.194E-01
   8.347  0.360E-01  0.105E-02  0.175E-01  0.175E-01
   8.357  0.323E-01  0.113E-02  0.156E-01  0.156E-01
   8.367  0.287E-01  0.122E-02  0.138E-01  0.138E-01
   8.377  0.254E-01  0.130E-02  0.120E-01  0.120E-01
   8.387  0.222E-01  0.138E-02  0.104E-01  0.104E-01
   8.397  0.194E-01  0.146E-02  0.896E-02  0.896E-02
   8.407  0.168E-01  0.154E-02  0.762E-02  0.762E-02
   8.417  0.145E-01  0.160E-02  0.642E-02  0.642E-02
   8.427  0.124E-01  0.167E-02  0.537E-02  0.537E-02
   8.437  0.106E-01  0.172E-02  0.446E-02  0.446E-02
   8.447  0.911E-02  0.177E-02  0.367E-02  0.367E-02
   8.457  0.782E-02  0.181E-02  0.301E-02  0.301E-02
   8.467  0.675E-02  0.184E-02  0.245E-02  0.245E-02
   8.477  0.586E-02  0.187E-02  0.199E-02  0.199E-02
   8.487  0.514E-02  0.189E-02  0.162E-02  0.162E-02
   8.497  0.456E-02  0.191E-02  0.132E-02  0.132E-02
   8.507  0.410E-02  0.192E-02  0.109E-02  0.109E-02
   8.517  0.374E-02  0.193E-02  0.904E-03  0.904E-03
   8.527  0.346E-02  0.194E-02  0.762E-03  0.762E-03
   8.537  0.324E-02  0.193E-02  0.654E-03  0.654E-03
   8.547  0.307E-02  0.192E-02  0.573E-03  0.573E-03
   8.557  0.294E-02  0.191E-02  0.513E-03  0.513E-03
   8.567  0.283E-02  0.189E-02  0.469E-03  0.469E-03
   8.577  0.273E-02  0.186E-02  0.437E-03  0.437E-03
   8.587  0.265E-02  0.182E-02  0.414E-03  0.414E-03
   8.597  0.257E-02  0.177E-02  0.398E-03  0.398E-03
   8.607  0.249E-02  0.172E-02  0.387E-03  0.387E-03
   8.617  0.241E-02  0.165E-02  0.379E-03  0.379E-03
   8.627  0.233E-02  0.158E-02  0.375E-03  0.375E-03
   8.637  0.224E-02  0.149E-02  0.372E-03  0.372E-03
   8.647  0.215E-02  0.140E-02  0.372E-03  0.372E-03
   8.657  0.205E-02  0.131E-02  0.373E-03  0.373E-03
   8.667  0.196E-02  0.121E-02  0.375E-03  0.375E-03
   8.677  0.187E-02  0.111E-02  0.379E-03  0.379E-03
   8.687  0.177E-02  0.100E-02  0.384E-03  0.384E-03
   8.697  0.168E-02  0.903E-03  0.389E-03  0.389E-03
   8.707  0.159E-02  0.803E-03  0.395E-03  0.395E-03
   8.717  0.151E-02  0.708E-03  0.402E-03  0.402E-03
   8.727  0.144E-02  0.617E-03  0.409E-03  0.409E-03
   8.737  0.136E-02  0.533E-03  0.415E-03  0.415E-03
   8.747  0.130E-02  0.456E-03  0.421E-03  0.421E-03
   8.757  0.124E-02  0.385E-03  0.427E-03  0.427E-03
   8.767  0.118E-02  0.323E-03  0.431E-03  0.431E-03
   8.777  0.113E-02  0.267E-03  0.433E-03  0.433E-03
   8.787  0.109E-02  0.219E-03  0.434E-03  0.434E-03
   8.797  0.105E-02  0.178E-03  0.434E-03  0.434E-03
   8.807  0.101E-02  0.143E-03  0.432E-03  0.432E-03
   8.817  0.970E-03  0.113E-03  0.428E-03  0.428E-03
   8.827  0.937E-03  0.891E-04  0.424E-03  0.424E-03
   8.837  0.908E-03  0.693E-04  0.419E-03  0.419E-03
   8.847  0.884E-03  0.533E-04  0.415E-03  0.415E-03
   8.857  0.865E-03  0.406E-04  0.412E-03  0.412E-03
   8.867  0.854E-03  0.306E-04  0.412E-03  0.412E-03
   8.877  0.853E-03  0.228E-04  0.415E-03  0.415E-03
   8.887  0.865E-03  0.168E-04  0.424E-03  0.424E-03
   8.897  0.892E-03  0.123E-04  0.440E-03  0.440E-03
   8.907  0.939E-03  0.890E-05  0.465E-03  0.465E-03
   8.917  0.101E-02  0.637E-05  0.501E-03  0.501E-03
   8.927  0.111E-02  0.452E-05  0.551E-03  0.551E-03
   8.937  0.124E-02  0.317E-05  0.616E-03  0.616E-03
   8.947  0.140E-02  0.221E-05  0.699E-03  0.699E-03
   8.957  0.161E-02  0.152E-05  0.802E-03  0.802E-03
   8.967  0.185E-02  0.104E-05  0.927E-03  0.927E-03
   8.977  0.215E-02  0.703E-06  0.107E-02  0.107E-02
   8.987  0.249E-02  0.472E-06  0.125E-02  0.125E-02
   8.997  0.288E-02  0.315E-06  0.144E-02  0.144E-02
   9.007  0.332E-02  0.208E-06  0.166E-02  0.166E-02
   9.017  0.380E-02  0.137E-06  0.190E-02  0.190E-02
   9.027  0.432E-02  0.898E-07  0.216E-02  0.216E-02
   9.037  0.488E-02  0.585E-07  0.244E-02  0.244E-02
   9.047  0.546E-02  0.379E-07  0.273E-02  0.273E-02
   9.057  0.605E-02  0.245E-07  0.303E-02  0.303E-02
   9.067  0.665E-02  0.158E-07  0.333E-02  0.333E-02
   9.077  0.724E-02  0.102E-07  0.362E-02  0.362E-02
   9.087  0.781E-02  0.660E-08  0.391E-02  0.391E-02
   9.097  0.835E-02  0.427E-08  0.417E-02  0.417E-02
   9.107  0.883E-02  0.277E-08  0.442E-02  0.442E-02
   9.117  0.926E-02  0.180E-08  0.463E-02  0.463E-02
   9.127  0.962E-02  0.118E-08  0.481E-02  0.481E-02
   9.137  0.990E-02  0.779E-09  0.495E-02  0.495E-02
   9.147  0.101E-01  0.520E-09  0.505E-02  0.505E-02
   9.157  0.102E-01  0.353E-09  0.510E-02  0.510E-02
   9.167  0.102E-01  0.244E-09  0.511E-02  0.511E-02
   9.177  0.102E-01  0.173E-09  0.508E-02  0.508E-02
   9.187  0.100E-01  0.127E-09  0.501E-02  0.501E-02
   9.197  0.981E-02  0.955E-10  0.490E-02  0.490E-02
   9.207  0.953E-02  0.744E-10  0.477E-02  0.477E-02
   9.217  0.921E-02  0.596E-10  0.460E-02  0.460E-02
   9.227  0.885E-02  0.490E-10  0.442E-02  0.442E-02
   9.237  0.847E-02  0.410E-10  0.423E-02  0.423E-02
   9.247  0.809E-02  0.348E-10  0.404E-02  0.404E-02
   9.257  0.772E-02  0.297E-10  0.386E-02  0.386E-02
   9.267  0.739E-02  0.255E-10  0.370E-02  0.370E-02
   9.277  0.711E-02  0.218E-10  0.356E-02  0.356E-02
   9.287  0.691E-02  0.187E-10  0.346E-02  0.346E-02
   9.297  0.680E-02  0.159E-10  0.340E-02  0.340E-02
   9.307  0.681E-02  0.135E-10  0.341E-02  0.341E-02
   9.317  0.696E-02  0.114E-10  0.348E-02  0.348E-02
   9.327  0.726E-02  0.957E-11  0.363E-02  0.363E-02
   9.337  0.775E-02  0.806E-11  0.387E-02  0.387E-02
   9.347  0.843E-02  0.680E-11  0.421E-02  0.421E-02
   9.357  0.932E-02  0.579E-11  0.466E-02  0.466E-02
   9.367  0.104E-01  0.500E-11  0.522E-02  0.522E-02
   9.377  0.118E-01  0.440E-11  0.589E-02  0.589E-02
   9.387  0.133E-01  0.399E-11  0.667E-02  0.667E-02
   9.397  0.151E-01  0.373E-11  0.757E-02  0.757E-02
   9.407  0.171E-01  0.360E-11  0.857E-02  0.857E-02
   9.417  0.193E-01  0.358E-11  0.965E-02  0.965E-02
   9.427  0.216E-01  0.366E-11  0.108E-01  0.108E-01
   9.437  0.241E-01  0.381E-11  0.120E-01  0.120E-01
   9.447  0.265E-01  0.401E-11  0.133E-01  0.133E-01
   9.457  0.290E-01  0.425E-11  0.145E-01  0.145E-01
   9.467  0.314E-01  0.450E-11  0.157E-01  0.157E-01
   9.477  0.337E-01  0.476E-11  0.169E-01  0.169E-01
   9.487  0.358E-01  0.501E-11  0.179E-01  0.179E-01
   9.497  0.377E-01  0.523E-11  0.188E-01  0.188E-01
   9.507  0.392E-01  0.542E-11  0.196E-01  0.196E-01
   9.517  0.403E-01  0.557E-11  0.202E-01  0.202E-01
   9.527  0.411E-01  0.566E-11  0.206E-01  0.206E-01
   9.537  0.414E-01  0.570E-11  0.207E-01  0.207E-01
   9.547  0.413E-01  0.568E-11  0.207E-01  0.207E-01
   9.557  0.408E-01  0.560E-11  0.204E-01  0.204E-01
   9.567  0.398E-01  0.546E-11  0.199E-01  0.199E-01
   9.577  0.385E-01  0.527E-11  0.192E-01  0.192E-01
   9.587  0.368E-01  0.504E-11  0.184E-01  0.184E-01
   9.597  0.348E-01  0.476E-11  0.174E-01  0.174E-01
   9.607  0.326E-01  0.445E-11  0.163E-01  0.163E-01
   9.617  0.303E-01  0.411E-11  0.151E-01  0.151E-01
   9.627  0.278E-01  0.376E-11  0.139E-01  0.139E-01
   9.637  0.253E-01  0.341E-11  0.127E-01  0.127E-01
   9.647  0.229E-01  0.305E-11  0.114E-01  0.114E-01
   9.657  0.205E-01  0.270E-11  0.102E-01  0.102E-01
   9.667  0.183E-01  0.237E-11  0.913E-02  0.913E-02
   9.677  0.162E-01  0.205E-11  0.810E-02  0.810E-02
   9.687  0.144E-01  0.176E-11  0.718E-02  0.718E-02
   9.697  0.127E-01  0.149E-11  0.637E-02  0.637E-02
   9.707  0.114E-01  0.125E-11  0.568E-02  0.568E-02
   9.717  0.102E-01  0.104E-11  0.511E-02  0.511E-02
   9.727  0.931E-02  0.855E-12  0.466E-02  0.466E-02
   9.737  0.864E-02  0.695E-12  0.432E-02  0.432E-02
   9.747  0.816E-02  0.559E-12  0.408E-02  0.408E-02
   9.757  0.788E-02  0.445E-12  0.394E-02  0.394E-02
   9.767  0.775E-02  0.351E-12  0.387E-02  0.387E-02
   9.777  0.775E-02  0.273E-12  0.387E-02  0.387E-02
   9.787  0.785E-02  0.211E-12  0.393E-02  0.393E-02
   9.797  0.803E-02  0.162E-12  0.401E-02  0.401E-02
   9.807  0.824E-02  0.123E-12  0.412E-02  0.412E-02
   9.817  0.847E-02  0.925E-13  0.424E-02  0.424E-02
   9.827  0.869E-02  0.692E-13  0.435E-02  0.435E-02
   9.837  0.888E-02  0.516E-13  0.444E-02  0.444E-02
   9.847  0.902E-02  0.383E-13  0.451E-02  0.451E-02
   9.857  0.909E-02  0.285E-13  0.455E-02  0.455E-02
   9.867  0.909E-02  0.213E-13  0.454E-02  0.454E-02
   9.877  0.900E-02  0.160E-13  0.450E-02  0.450E-02
   9.887  0.883E-02  0.122E-13  0.442E-02  0.442E-02
   9.897  0.858E-02  0.943E-14  0.429E-02  0.429E-02
   9.907  0.825E-02  0.743E-14  0.413E-02  0.413E-02
   9.917  0.785E-02  0.598E-14  0.393E-02  0.393E-02
   9.927  0.740E-02  0.491E-14  0.370E-02  0.370E-02
   9.937  0.689E-02  0.410E-14  0.345E-02  0.345E-02
   9.947  0.636E-02  0.347E-14  0.318E-02  0.318E-02
   9.957  0.580E-02  0.297E-14  0.290E-02  0.290E-02
   9.967  0.523E-02  0.255E-14  0.262E-02  0.262E-02
   9.977  0.467E-02  0.220E-14  0.234E-02  0.234E-02
   9.987  0.413E-02  0.190E-14  0.206E-02  0.206E-02
   9.997  0.360E-02  0.163E-14  0.180E-02  0.180E-02
  10.007  0.312E-02  0.139E-14  0.156E-02  0.156E-02
  10.017  0.266E-02  0.118E-14  0.133E-02  0.133E-02
  10.027  0.225E-02  0.989E-15  0.113E-02  0.113E-02
  10.037  0.189E-02  0.824E-15  0.943E-03  0.943E-03
  10.047  0.156E-02  0.680E-15  0.781E-03  0.781E-03
  10.057  0.128E-02  0.555E-15  0.639E-03  0.639E-03
  10.067  0.104E-02  0.449E-15  0.518E-03  0.518E-03
  10.077  0.830E-03  0.360E-15  0.415E-03  0.415E-03
  10.087  0.658E-03  0.285E-15  0.329E-03  0.329E-03
  10.097  0.516E-03  0.223E-15  0.258E-03  0.258E-03
  10.107  0.401E-03  0.173E-15  0.200E-03  0.200E-03
  10.117  0.307E-03  0.133E-15  0.154E-03  0.154E-03
  10.127  0.233E-03  0.101E-15  0.117E-03  0.117E-03
  10.137  0.175E-03  0.758E-16  0.877E-04  0.877E-04
  10.147  0.130E-03  0.563E-16  0.652E-04  0.652E-04
  10.157  0.958E-04  0.414E-16  0.479E-04  0.479E-04
  10.167  0.697E-04  0.301E-16  0.348E-04  0.348E-04
  10.177  0.501E-04  0.216E-16  0.251E-04  0.251E-04
  10.187  0.357E-04  0.154E-16  0.178E-04  0.178E-04
  10.197  0.251E-04  0.108E-16  0.126E-04  0.126E-04
  10.207  0.175E-04  0.755E-17  0.874E-05  0.874E-05
  10.217  0.120E-04  0.520E-17  0.602E-05  0.602E-05
  10.227  0.821E-05  0.355E-17  0.411E-05  0.411E-05
  10.237  0.554E-05  0.239E-17  0.277E-05  0.277E-05
  10.247  0.369E-05  0.160E-17  0.185E-05  0.185E-05
  10.257  0.244E-05  0.105E-17  0.122E-05  0.122E-05
  10.267  0.159E-05  0.687E-18  0.795E-06  0.795E-06
  10.277  0.103E-05  0.444E-18  0.513E-06  0.513E-06
