# E (eV)   ldos(E)   pdos(E)   
 -22.281  0.166E-05  0.166E-05
 -22.271  0.262E-05  0.262E-05
 -22.261  0.410E-05  0.410E-05
 -22.251  0.635E-05  0.635E-05
 -22.241  0.973E-05  0.973E-05
 -22.231  0.148E-04  0.148E-04
 -22.221  0.222E-04  0.222E-04
 -22.211  0.330E-04  0.330E-04
 -22.201  0.485E-04  0.485E-04
 -22.191  0.706E-04  0.706E-04
 -22.181  0.102E-03  0.102E-03
 -22.171  0.145E-03  0.145E-03
 -22.161  0.205E-03  0.205E-03
 -22.151  0.287E-03  0.287E-03
 -22.141  0.398E-03  0.398E-03
 -22.131  0.545E-03  0.545E-03
 -22.121  0.740E-03  0.740E-03
 -22.111  0.994E-03  0.994E-03
 -22.101  0.132E-02  0.132E-02
 -22.091  0.174E-02  0.174E-02
 -22.081  0.228E-02  0.228E-02
 -22.071  0.294E-02  0.294E-02
 -22.061  0.377E-02  0.377E-02
 -22.051  0.478E-02  0.478E-02
 -22.041  0.600E-02  0.600E-02
 -22.031  0.746E-02  0.746E-02
 -22.021  0.920E-02  0.920E-02
 -22.011  0.112E-01  0.112E-01
 -22.001  0.136E-01  0.136E-01
 -21.991  0.163E-01  0.163E-01
 -21.981  0.194E-01  0.194E-01
 -21.971  0.228E-01  0.228E-01
 -21.961  0.267E-01  0.267E-01
 -21.951  0.309E-01  0.309E-01
 -21.941  0.355E-01  0.355E-01
 -21.931  0.404E-01  0.404E-01
 -21.921  0.456E-01  0.456E-01
 -21.911  0.511E-01  0.511E-01
 -21.901  0.568E-01  0.568E-01
 -21.891  0.627E-01  0.627E-01
 -21.881  0.687E-01  0.687E-01
 -21.871  0.747E-01  0.747E-01
 -21.861  0.807E-01  0.807E-01
 -21.851  0.866E-01  0.866E-01
 -21.841  0.923E-01  0.923E-01
 -21.831  0.978E-01  0.978E-01
 -21.821  0.103E+00  0.103E+00
 -21.811  0.108E+00  0.108E+00
 -21.801  0.112E+00  0.112E+00
 -21.791  0.117E+00  0.117E+00
 -21.781  0.120E+00  0.120E+00
 -21.771  0.124E+00  0.124E+00
 -21.761  0.127E+00  0.127E+00
 -21.751  0.129E+00  0.129E+00
 -21.741  0.131E+00  0.131E+00
 -21.731  0.133E+00  0.133E+00
 -21.721  0.135E+00  0.135E+00
 -21.711  0.136E+00  0.136E+00
 -21.701  0.137E+00  0.137E+00
 -21.691  0.138E+00  0.138E+00
 -21.681  0.138E+00  0.138E+00
 -21.671  0.139E+00  0.139E+00
 -21.661  0.139E+00  0.139E+00
 -21.651  0.139E+00  0.139E+00
 -21.641  0.139E+00  0.139E+00
 -21.631  0.139E+00  0.139E+00
 -21.621  0.139E+00  0.139E+00
 -21.611  0.138E+00  0.138E+00
 -21.601  0.138E+00  0.138E+00
 -21.591  0.138E+00  0.138E+00
 -21.581  0.137E+00  0.137E+00
 -21.571  0.137E+00  0.137E+00
 -21.561  0.137E+00  0.137E+00
 -21.551  0.136E+00  0.136E+00
 -21.541  0.136E+00  0.136E+00
 -21.531  0.136E+00  0.136E+00
 -21.521  0.135E+00  0.135E+00
 -21.511  0.135E+00  0.135E+00
 -21.501  0.134E+00  0.134E+00
 -21.491  0.134E+00  0.134E+00
 -21.481  0.134E+00  0.134E+00
 -21.471  0.133E+00  0.133E+00
 -21.461  0.133E+00  0.133E+00
 -21.451  0.133E+00  0.133E+00
 -21.441  0.132E+00  0.132E+00
 -21.431  0.132E+00  0.132E+00
 -21.421  0.132E+00  0.132E+00
 -21.411  0.131E+00  0.131E+00
 -21.401  0.131E+00  0.131E+00
 -21.391  0.131E+00  0.131E+00
 -21.381  0.130E+00  0.130E+00
 -21.371  0.130E+00  0.130E+00
 -21.361  0.130E+00  0.130E+00
 -21.351  0.129E+00  0.129E+00
 -21.341  0.129E+00  0.129E+00
 -21.331  0.128E+00  0.128E+00
 -21.321  0.128E+00  0.128E+00
 -21.311  0.128E+00  0.128E+00
 -21.301  0.127E+00  0.127E+00
 -21.291  0.127E+00  0.127E+00
 -21.281  0.127E+00  0.127E+00
 -21.271  0.127E+00  0.127E+00
 -21.261  0.126E+00  0.126E+00
 -21.251  0.126E+00  0.126E+00
 -21.241  0.126E+00  0.126E+00
 -21.231  0.126E+00  0.126E+00
 -21.221  0.126E+00  0.126E+00
 -21.211  0.126E+00  0.126E+00
 -21.201  0.126E+00  0.126E+00
 -21.191  0.125E+00  0.125E+00
 -21.181  0.125E+00  0.125E+00
 -21.171  0.124E+00  0.124E+00
 -21.161  0.124E+00  0.124E+00
 -21.151  0.123E+00  0.123E+00
 -21.141  0.123E+00  0.123E+00
 -21.131  0.122E+00  0.122E+00
 -21.121  0.122E+00  0.122E+00
 -21.111  0.121E+00  0.121E+00
 -21.101  0.121E+00  0.121E+00
 -21.091  0.121E+00  0.121E+00
 -21.081  0.120E+00  0.120E+00
 -21.071  0.120E+00  0.120E+00
 -21.061  0.120E+00  0.120E+00
 -21.051  0.121E+00  0.121E+00
 -21.041  0.121E+00  0.121E+00
 -21.031  0.121E+00  0.121E+00
 -21.021  0.121E+00  0.121E+00
 -21.011  0.121E+00  0.121E+00
 -21.001  0.121E+00  0.121E+00
 -20.991  0.121E+00  0.121E+00
 -20.981  0.121E+00  0.121E+00
 -20.971  0.121E+00  0.121E+00
 -20.961  0.120E+00  0.120E+00
 -20.951  0.120E+00  0.120E+00
 -20.941  0.119E+00  0.119E+00
 -20.931  0.118E+00  0.118E+00
 -20.921  0.117E+00  0.117E+00
 -20.911  0.117E+00  0.117E+00
 -20.901  0.116E+00  0.116E+00
 -20.891  0.115E+00  0.115E+00
 -20.881  0.115E+00  0.115E+00
 -20.871  0.114E+00  0.114E+00
 -20.861  0.114E+00  0.114E+00
 -20.851  0.114E+00  0.114E+00
 -20.841  0.114E+00  0.114E+00
 -20.831  0.115E+00  0.115E+00
 -20.821  0.115E+00  0.115E+00
 -20.811  0.116E+00  0.116E+00
 -20.801  0.116E+00  0.116E+00
 -20.791  0.117E+00  0.117E+00
 -20.781  0.117E+00  0.117E+00
 -20.771  0.118E+00  0.118E+00
 -20.761  0.118E+00  0.118E+00
 -20.751  0.118E+00  0.118E+00
 -20.741  0.118E+00  0.118E+00
 -20.731  0.117E+00  0.117E+00
 -20.721  0.117E+00  0.117E+00
 -20.711  0.116E+00  0.116E+00
 -20.701  0.115E+00  0.115E+00
 -20.691  0.114E+00  0.114E+00
 -20.681  0.113E+00  0.113E+00
 -20.671  0.111E+00  0.111E+00
 -20.661  0.110E+00  0.110E+00
 -20.651  0.109E+00  0.109E+00
 -20.641  0.108E+00  0.108E+00
 -20.631  0.108E+00  0.108E+00
 -20.621  0.107E+00  0.107E+00
 -20.611  0.107E+00  0.107E+00
 -20.601  0.107E+00  0.107E+00
 -20.591  0.108E+00  0.108E+00
 -20.581  0.108E+00  0.108E+00
 -20.571  0.109E+00  0.109E+00
 -20.561  0.110E+00  0.110E+00
 -20.551  0.111E+00  0.111E+00
 -20.541  0.112E+00  0.112E+00
 -20.531  0.113E+00  0.113E+00
 -20.521  0.114E+00  0.114E+00
 -20.511  0.115E+00  0.115E+00
 -20.501  0.115E+00  0.115E+00
 -20.491  0.115E+00  0.115E+00
 -20.481  0.115E+00  0.115E+00
 -20.471  0.115E+00  0.115E+00
 -20.461  0.114E+00  0.114E+00
 -20.451  0.113E+00  0.113E+00
 -20.441  0.112E+00  0.112E+00
 -20.431  0.111E+00  0.111E+00
 -20.421  0.109E+00  0.109E+00
 -20.411  0.108E+00  0.108E+00
 -20.401  0.106E+00  0.106E+00
 -20.391  0.105E+00  0.105E+00
 -20.381  0.103E+00  0.103E+00
 -20.371  0.102E+00  0.102E+00
 -20.361  0.102E+00  0.102E+00
 -20.351  0.101E+00  0.101E+00
 -20.341  0.101E+00  0.101E+00
 -20.331  0.101E+00  0.101E+00
 -20.321  0.101E+00  0.101E+00
 -20.311  0.102E+00  0.102E+00
 -20.301  0.103E+00  0.103E+00
 -20.291  0.104E+00  0.104E+00
 -20.281  0.106E+00  0.106E+00
 -20.271  0.107E+00  0.107E+00
 -20.261  0.108E+00  0.108E+00
 -20.251  0.110E+00  0.110E+00
 -20.241  0.111E+00  0.111E+00
 -20.231  0.112E+00  0.112E+00
 -20.221  0.113E+00  0.113E+00
 -20.211  0.113E+00  0.113E+00
 -20.201  0.113E+00  0.113E+00
 -20.191  0.113E+00  0.113E+00
 -20.181  0.112E+00  0.112E+00
 -20.171  0.111E+00  0.111E+00
 -20.161  0.110E+00  0.110E+00
 -20.151  0.109E+00  0.109E+00
 -20.141  0.107E+00  0.107E+00
 -20.131  0.105E+00  0.105E+00
 -20.121  0.104E+00  0.104E+00
 -20.111  0.102E+00  0.102E+00
 -20.101  0.100E+00  0.100E+00
 -20.091  0.988E-01  0.988E-01
 -20.081  0.974E-01  0.974E-01
 -20.071  0.964E-01  0.964E-01
 -20.061  0.956E-01  0.956E-01
 -20.051  0.951E-01  0.951E-01
 -20.041  0.950E-01  0.950E-01
 -20.031  0.952E-01  0.952E-01
 -20.021  0.957E-01  0.957E-01
 -20.011  0.966E-01  0.966E-01
 -20.001  0.977E-01  0.977E-01
 -19.991  0.990E-01  0.990E-01
 -19.981  0.101E+00  0.101E+00
 -19.971  0.102E+00  0.102E+00
 -19.961  0.104E+00  0.104E+00
 -19.951  0.106E+00  0.106E+00
 -19.941  0.107E+00  0.107E+00
 -19.931  0.109E+00  0.109E+00
 -19.921  0.110E+00  0.110E+00
 -19.911  0.111E+00  0.111E+00
 -19.901  0.111E+00  0.111E+00
 -19.891  0.112E+00  0.112E+00
 -19.881  0.111E+00  0.111E+00
 -19.871  0.111E+00  0.111E+00
 -19.861  0.110E+00  0.110E+00
 -19.851  0.109E+00  0.109E+00
 -19.841  0.107E+00  0.107E+00
 -19.831  0.105E+00  0.105E+00
 -19.821  0.103E+00  0.103E+00
 -19.811  0.101E+00  0.101E+00
 -19.801  0.992E-01  0.992E-01
 -19.791  0.972E-01  0.972E-01
 -19.781  0.953E-01  0.953E-01
 -19.771  0.936E-01  0.936E-01
 -19.761  0.921E-01  0.921E-01
 -19.751  0.909E-01  0.909E-01
 -19.741  0.901E-01  0.901E-01
 -19.731  0.896E-01  0.896E-01
 -19.721  0.895E-01  0.895E-01
 -19.711  0.898E-01  0.898E-01
 -19.701  0.904E-01  0.904E-01
 -19.691  0.913E-01  0.913E-01
 -19.681  0.925E-01  0.925E-01
 -19.671  0.939E-01  0.939E-01
 -19.661  0.955E-01  0.955E-01
 -19.651  0.973E-01  0.973E-01
 -19.641  0.991E-01  0.991E-01
 -19.631  0.101E+00  0.101E+00
 -19.621  0.103E+00  0.103E+00
 -19.611  0.104E+00  0.104E+00
 -19.601  0.106E+00  0.106E+00
 -19.591  0.107E+00  0.107E+00
 -19.581  0.108E+00  0.108E+00
 -19.571  0.109E+00  0.109E+00
 -19.561  0.109E+00  0.109E+00
 -19.551  0.109E+00  0.109E+00
 -19.541  0.109E+00  0.109E+00
 -19.531  0.109E+00  0.109E+00
 -19.521  0.108E+00  0.108E+00
 -19.511  0.106E+00  0.106E+00
 -19.501  0.105E+00  0.105E+00
 -19.491  0.103E+00  0.103E+00
 -19.481  0.101E+00  0.101E+00
 -19.471  0.989E-01  0.989E-01
 -19.461  0.967E-01  0.967E-01
 -19.451  0.945E-01  0.945E-01
 -19.441  0.924E-01  0.924E-01
 -19.431  0.904E-01  0.904E-01
 -19.421  0.886E-01  0.886E-01
 -19.411  0.870E-01  0.870E-01
 -19.401  0.857E-01  0.857E-01
 -19.391  0.848E-01  0.848E-01
 -19.381  0.843E-01  0.843E-01
 -19.371  0.842E-01  0.842E-01
 -19.361  0.845E-01  0.845E-01
 -19.351  0.852E-01  0.852E-01
 -19.341  0.863E-01  0.863E-01
 -19.331  0.877E-01  0.877E-01
 -19.321  0.894E-01  0.894E-01
 -19.311  0.913E-01  0.913E-01
 -19.301  0.934E-01  0.934E-01
 -19.291  0.956E-01  0.956E-01
 -19.281  0.978E-01  0.978E-01
 -19.271  0.999E-01  0.999E-01
 -19.261  0.102E+00  0.102E+00
 -19.251  0.104E+00  0.104E+00
 -19.241  0.105E+00  0.105E+00
 -19.231  0.106E+00  0.106E+00
 -19.221  0.107E+00  0.107E+00
 -19.211  0.108E+00  0.108E+00
 -19.201  0.108E+00  0.108E+00
 -19.191  0.108E+00  0.108E+00
 -19.181  0.107E+00  0.107E+00
 -19.171  0.106E+00  0.106E+00
 -19.161  0.105E+00  0.105E+00
 -19.151  0.104E+00  0.104E+00
 -19.141  0.102E+00  0.102E+00
 -19.131  0.100E+00  0.100E+00
 -19.121  0.986E-01  0.986E-01
 -19.111  0.967E-01  0.967E-01
 -19.101  0.947E-01  0.947E-01
 -19.091  0.927E-01  0.927E-01
 -19.081  0.908E-01  0.908E-01
 -19.071  0.889E-01  0.889E-01
 -19.061  0.872E-01  0.872E-01
 -19.051  0.855E-01  0.855E-01
 -19.041  0.841E-01  0.841E-01
 -19.031  0.829E-01  0.829E-01
 -19.021  0.819E-01  0.819E-01
 -19.011  0.812E-01  0.812E-01
 -19.001  0.808E-01  0.808E-01
 -18.991  0.808E-01  0.808E-01
 -18.981  0.811E-01  0.811E-01
 -18.971  0.818E-01  0.818E-01
 -18.961  0.829E-01  0.829E-01
 -18.951  0.843E-01  0.843E-01
 -18.941  0.860E-01  0.860E-01
 -18.931  0.879E-01  0.879E-01
 -18.921  0.901E-01  0.901E-01
 -18.911  0.925E-01  0.925E-01
 -18.901  0.949E-01  0.949E-01
 -18.891  0.974E-01  0.974E-01
 -18.881  0.997E-01  0.997E-01
 -18.871  0.102E+00  0.102E+00
 -18.861  0.104E+00  0.104E+00
 -18.851  0.105E+00  0.105E+00
 -18.841  0.107E+00  0.107E+00
 -18.831  0.108E+00  0.108E+00
 -18.821  0.108E+00  0.108E+00
 -18.811  0.108E+00  0.108E+00
 -18.801  0.107E+00  0.107E+00
 -18.791  0.106E+00  0.106E+00
 -18.781  0.105E+00  0.105E+00
 -18.771  0.104E+00  0.104E+00
 -18.761  0.102E+00  0.102E+00
 -18.751  0.995E-01  0.995E-01
 -18.741  0.973E-01  0.973E-01
 -18.731  0.951E-01  0.951E-01
 -18.721  0.928E-01  0.928E-01
 -18.711  0.906E-01  0.906E-01
 -18.701  0.885E-01  0.885E-01
 -18.691  0.865E-01  0.865E-01
 -18.681  0.848E-01  0.848E-01
 -18.671  0.832E-01  0.832E-01
 -18.661  0.819E-01  0.819E-01
 -18.651  0.808E-01  0.808E-01
 -18.641  0.799E-01  0.799E-01
 -18.631  0.793E-01  0.793E-01
 -18.621  0.789E-01  0.789E-01
 -18.611  0.788E-01  0.788E-01
 -18.601  0.789E-01  0.789E-01
 -18.591  0.793E-01  0.793E-01
 -18.581  0.799E-01  0.799E-01
 -18.571  0.808E-01  0.808E-01
 -18.561  0.819E-01  0.819E-01
 -18.551  0.832E-01  0.832E-01
 -18.541  0.847E-01  0.847E-01
 -18.531  0.864E-01  0.864E-01
 -18.521  0.883E-01  0.883E-01
 -18.511  0.903E-01  0.903E-01
 -18.501  0.923E-01  0.923E-01
 -18.491  0.945E-01  0.945E-01
 -18.481  0.966E-01  0.966E-01
 -18.471  0.986E-01  0.986E-01
 -18.461  0.101E+00  0.101E+00
 -18.451  0.102E+00  0.102E+00
 -18.441  0.104E+00  0.104E+00
 -18.431  0.105E+00  0.105E+00
 -18.421  0.106E+00  0.106E+00
 -18.411  0.106E+00  0.106E+00
 -18.401  0.107E+00  0.107E+00
 -18.391  0.106E+00  0.106E+00
 -18.381  0.106E+00  0.106E+00
 -18.371  0.105E+00  0.105E+00
 -18.361  0.103E+00  0.103E+00
 -18.351  0.102E+00  0.102E+00
 -18.341  0.996E-01  0.996E-01
 -18.331  0.974E-01  0.974E-01
 -18.321  0.949E-01  0.949E-01
 -18.311  0.924E-01  0.924E-01
 -18.301  0.899E-01  0.899E-01
 -18.291  0.874E-01  0.874E-01
 -18.281  0.849E-01  0.849E-01
 -18.271  0.827E-01  0.827E-01
 -18.261  0.806E-01  0.806E-01
 -18.251  0.788E-01  0.788E-01
 -18.241  0.773E-01  0.773E-01
 -18.231  0.762E-01  0.762E-01
 -18.221  0.754E-01  0.754E-01
 -18.211  0.749E-01  0.749E-01
 -18.201  0.748E-01  0.748E-01
 -18.191  0.751E-01  0.751E-01
 -18.181  0.757E-01  0.757E-01
 -18.171  0.766E-01  0.766E-01
 -18.161  0.778E-01  0.778E-01
 -18.151  0.792E-01  0.792E-01
 -18.141  0.809E-01  0.809E-01
 -18.131  0.827E-01  0.827E-01
 -18.121  0.847E-01  0.847E-01
 -18.111  0.867E-01  0.867E-01
 -18.101  0.888E-01  0.888E-01
 -18.091  0.910E-01  0.910E-01
 -18.081  0.930E-01  0.930E-01
 -18.071  0.950E-01  0.950E-01
 -18.061  0.969E-01  0.969E-01
 -18.051  0.986E-01  0.986E-01
 -18.041  0.100E+00  0.100E+00
 -18.031  0.101E+00  0.101E+00
 -18.021  0.103E+00  0.103E+00
 -18.011  0.103E+00  0.103E+00
 -18.001  0.104E+00  0.104E+00
 -17.991  0.104E+00  0.104E+00
 -17.981  0.104E+00  0.104E+00
 -17.971  0.104E+00  0.104E+00
 -17.961  0.104E+00  0.104E+00
 -17.951  0.103E+00  0.103E+00
 -17.941  0.102E+00  0.102E+00
 -17.931  0.101E+00  0.101E+00
 -17.921  0.997E-01  0.997E-01
 -17.911  0.982E-01  0.982E-01
 -17.901  0.966E-01  0.966E-01
 -17.891  0.948E-01  0.948E-01
 -17.881  0.929E-01  0.929E-01
 -17.871  0.909E-01  0.909E-01
 -17.861  0.889E-01  0.889E-01
 -17.851  0.867E-01  0.867E-01
 -17.841  0.846E-01  0.846E-01
 -17.831  0.825E-01  0.825E-01
 -17.821  0.806E-01  0.806E-01
 -17.811  0.787E-01  0.787E-01
 -17.801  0.770E-01  0.770E-01
 -17.791  0.756E-01  0.756E-01
 -17.781  0.744E-01  0.744E-01
 -17.771  0.735E-01  0.735E-01
 -17.761  0.731E-01  0.731E-01
 -17.751  0.730E-01  0.730E-01
 -17.741  0.733E-01  0.733E-01
 -17.731  0.740E-01  0.740E-01
 -17.721  0.751E-01  0.751E-01
 -17.711  0.767E-01  0.767E-01
 -17.701  0.785E-01  0.785E-01
 -17.691  0.807E-01  0.807E-01
 -17.681  0.831E-01  0.831E-01
 -17.671  0.857E-01  0.857E-01
 -17.661  0.884E-01  0.884E-01
 -17.651  0.911E-01  0.911E-01
 -17.641  0.939E-01  0.939E-01
 -17.631  0.965E-01  0.965E-01
 -17.621  0.989E-01  0.989E-01
 -17.611  0.101E+00  0.101E+00
 -17.601  0.103E+00  0.103E+00
 -17.591  0.105E+00  0.105E+00
 -17.581  0.106E+00  0.106E+00
 -17.571  0.107E+00  0.107E+00
 -17.561  0.107E+00  0.107E+00
 -17.551  0.107E+00  0.107E+00
 -17.541  0.107E+00  0.107E+00
 -17.531  0.106E+00  0.106E+00
 -17.521  0.105E+00  0.105E+00
 -17.511  0.104E+00  0.104E+00
 -17.501  0.103E+00  0.103E+00
 -17.491  0.101E+00  0.101E+00
 -17.481  0.999E-01  0.999E-01
 -17.471  0.982E-01  0.982E-01
 -17.461  0.966E-01  0.966E-01
 -17.451  0.949E-01  0.949E-01
 -17.441  0.933E-01  0.933E-01
 -17.431  0.917E-01  0.917E-01
 -17.421  0.902E-01  0.902E-01
 -17.411  0.887E-01  0.887E-01
 -17.401  0.873E-01  0.873E-01
 -17.391  0.859E-01  0.859E-01
 -17.381  0.846E-01  0.846E-01
 -17.371  0.833E-01  0.833E-01
 -17.361  0.820E-01  0.820E-01
 -17.351  0.809E-01  0.809E-01
 -17.341  0.798E-01  0.798E-01
 -17.331  0.788E-01  0.788E-01
 -17.321  0.780E-01  0.780E-01
 -17.311  0.774E-01  0.774E-01
 -17.301  0.770E-01  0.770E-01
 -17.291  0.768E-01  0.768E-01
 -17.281  0.770E-01  0.770E-01
 -17.271  0.775E-01  0.775E-01
 -17.261  0.784E-01  0.784E-01
 -17.251  0.797E-01  0.797E-01
 -17.241  0.813E-01  0.813E-01
 -17.231  0.833E-01  0.833E-01
 -17.221  0.856E-01  0.856E-01
 -17.211  0.882E-01  0.882E-01
 -17.201  0.910E-01  0.910E-01
 -17.191  0.940E-01  0.940E-01
 -17.181  0.970E-01  0.970E-01
 -17.171  0.100E+00  0.100E+00
 -17.161  0.103E+00  0.103E+00
 -17.151  0.106E+00  0.106E+00
 -17.141  0.108E+00  0.108E+00
 -17.131  0.110E+00  0.110E+00
 -17.121  0.112E+00  0.112E+00
 -17.111  0.113E+00  0.113E+00
 -17.101  0.114E+00  0.114E+00
 -17.091  0.115E+00  0.115E+00
 -17.081  0.115E+00  0.115E+00
 -17.071  0.115E+00  0.115E+00
 -17.061  0.114E+00  0.114E+00
 -17.051  0.113E+00  0.113E+00
 -17.041  0.112E+00  0.112E+00
 -17.031  0.110E+00  0.110E+00
 -17.021  0.109E+00  0.109E+00
 -17.011  0.107E+00  0.107E+00
 -17.001  0.105E+00  0.105E+00
 -16.991  0.104E+00  0.104E+00
 -16.981  0.102E+00  0.102E+00
 -16.971  0.100E+00  0.100E+00
 -16.961  0.989E-01  0.989E-01
 -16.951  0.975E-01  0.975E-01
 -16.941  0.964E-01  0.964E-01
 -16.931  0.953E-01  0.953E-01
 -16.921  0.944E-01  0.944E-01
 -16.911  0.937E-01  0.937E-01
 -16.901  0.932E-01  0.932E-01
 -16.891  0.928E-01  0.928E-01
 -16.881  0.926E-01  0.926E-01
 -16.871  0.926E-01  0.926E-01
 -16.861  0.928E-01  0.928E-01
 -16.851  0.932E-01  0.932E-01
 -16.841  0.939E-01  0.939E-01
 -16.831  0.949E-01  0.949E-01
 -16.821  0.962E-01  0.962E-01
 -16.811  0.978E-01  0.978E-01
 -16.801  0.997E-01  0.997E-01
 -16.791  0.102E+00  0.102E+00
 -16.781  0.105E+00  0.105E+00
 -16.771  0.108E+00  0.108E+00
 -16.761  0.111E+00  0.111E+00
 -16.751  0.114E+00  0.114E+00
 -16.741  0.118E+00  0.118E+00
 -16.731  0.122E+00  0.122E+00
 -16.721  0.125E+00  0.125E+00
 -16.711  0.129E+00  0.129E+00
 -16.701  0.133E+00  0.133E+00
 -16.691  0.136E+00  0.136E+00
 -16.681  0.139E+00  0.139E+00
 -16.671  0.141E+00  0.141E+00
 -16.661  0.143E+00  0.143E+00
 -16.651  0.144E+00  0.144E+00
 -16.641  0.145E+00  0.145E+00
 -16.631  0.145E+00  0.145E+00
 -16.621  0.145E+00  0.145E+00
 -16.611  0.144E+00  0.144E+00
 -16.601  0.142E+00  0.142E+00
 -16.591  0.140E+00  0.140E+00
 -16.581  0.137E+00  0.137E+00
 -16.571  0.134E+00  0.134E+00
 -16.561  0.131E+00  0.131E+00
 -16.551  0.127E+00  0.127E+00
 -16.541  0.123E+00  0.123E+00
 -16.531  0.119E+00  0.119E+00
 -16.521  0.115E+00  0.115E+00
 -16.511  0.111E+00  0.111E+00
 -16.501  0.107E+00  0.107E+00
 -16.491  0.102E+00  0.102E+00
 -16.481  0.978E-01  0.978E-01
 -16.471  0.934E-01  0.934E-01
 -16.461  0.891E-01  0.891E-01
 -16.451  0.848E-01  0.848E-01
 -16.441  0.805E-01  0.805E-01
 -16.431  0.764E-01  0.764E-01
 -16.421  0.724E-01  0.724E-01
 -16.411  0.685E-01  0.685E-01
 -16.401  0.650E-01  0.650E-01
 -16.391  0.617E-01  0.617E-01
 -16.381  0.588E-01  0.588E-01
 -16.371  0.563E-01  0.563E-01
 -16.361  0.543E-01  0.543E-01
 -16.351  0.529E-01  0.529E-01
 -16.341  0.520E-01  0.520E-01
 -16.331  0.518E-01  0.518E-01
 -16.321  0.523E-01  0.523E-01
 -16.311  0.533E-01  0.533E-01
 -16.301  0.550E-01  0.550E-01
 -16.291  0.572E-01  0.572E-01
 -16.281  0.600E-01  0.600E-01
 -16.271  0.631E-01  0.631E-01
 -16.261  0.664E-01  0.664E-01
 -16.251  0.700E-01  0.700E-01
 -16.241  0.735E-01  0.735E-01
 -16.231  0.769E-01  0.769E-01
 -16.221  0.801E-01  0.801E-01
 -16.211  0.828E-01  0.828E-01
 -16.201  0.850E-01  0.850E-01
 -16.191  0.866E-01  0.866E-01
 -16.181  0.875E-01  0.875E-01
 -16.171  0.877E-01  0.877E-01
 -16.161  0.871E-01  0.871E-01
 -16.151  0.856E-01  0.856E-01
 -16.141  0.835E-01  0.835E-01
 -16.131  0.806E-01  0.806E-01
 -16.121  0.771E-01  0.771E-01
 -16.111  0.731E-01  0.731E-01
 -16.101  0.687E-01  0.687E-01
 -16.091  0.641E-01  0.641E-01
 -16.081  0.592E-01  0.592E-01
 -16.071  0.543E-01  0.543E-01
 -16.061  0.495E-01  0.495E-01
 -16.051  0.449E-01  0.449E-01
 -16.041  0.406E-01  0.406E-01
 -16.031  0.366E-01  0.366E-01
 -16.021  0.330E-01  0.330E-01
 -16.011  0.299E-01  0.299E-01
 -16.001  0.273E-01  0.273E-01
 -15.991  0.252E-01  0.252E-01
 -15.981  0.236E-01  0.236E-01
 -15.971  0.226E-01  0.226E-01
 -15.961  0.220E-01  0.220E-01
 -15.951  0.219E-01  0.219E-01
 -15.941  0.222E-01  0.222E-01
 -15.931  0.229E-01  0.229E-01
 -15.921  0.240E-01  0.240E-01
 -15.911  0.253E-01  0.253E-01
 -15.901  0.270E-01  0.270E-01
 -15.891  0.289E-01  0.289E-01
 -15.881  0.310E-01  0.310E-01
 -15.871  0.333E-01  0.333E-01
 -15.861  0.356E-01  0.356E-01
 -15.851  0.380E-01  0.380E-01
 -15.841  0.403E-01  0.403E-01
 -15.831  0.426E-01  0.426E-01
 -15.821  0.448E-01  0.448E-01
 -15.811  0.468E-01  0.468E-01
 -15.801  0.485E-01  0.485E-01
 -15.791  0.500E-01  0.500E-01
 -15.781  0.511E-01  0.511E-01
 -15.771  0.519E-01  0.519E-01
 -15.761  0.523E-01  0.523E-01
 -15.751  0.523E-01  0.523E-01
 -15.741  0.519E-01  0.519E-01
 -15.731  0.512E-01  0.512E-01
 -15.721  0.501E-01  0.501E-01
 -15.711  0.487E-01  0.487E-01
 -15.701  0.471E-01  0.471E-01
 -15.691  0.454E-01  0.454E-01
 -15.681  0.435E-01  0.435E-01
 -15.671  0.416E-01  0.416E-01
 -15.661  0.397E-01  0.397E-01
 -15.651  0.379E-01  0.379E-01
 -15.641  0.363E-01  0.363E-01
 -15.631  0.348E-01  0.348E-01
 -15.621  0.336E-01  0.336E-01
 -15.611  0.327E-01  0.327E-01
 -15.601  0.321E-01  0.321E-01
 -15.591  0.317E-01  0.317E-01
 -15.581  0.317E-01  0.317E-01
 -15.571  0.319E-01  0.319E-01
 -15.561  0.323E-01  0.323E-01
 -15.551  0.330E-01  0.330E-01
 -15.541  0.339E-01  0.339E-01
 -15.531  0.349E-01  0.349E-01
 -15.521  0.361E-01  0.361E-01
 -15.511  0.373E-01  0.373E-01
 -15.501  0.386E-01  0.386E-01
 -15.491  0.399E-01  0.399E-01
 -15.481  0.412E-01  0.412E-01
 -15.471  0.425E-01  0.425E-01
 -15.461  0.438E-01  0.438E-01
 -15.451  0.450E-01  0.450E-01
 -15.441  0.462E-01  0.462E-01
 -15.431  0.474E-01  0.474E-01
 -15.421  0.485E-01  0.485E-01
 -15.411  0.495E-01  0.495E-01
 -15.401  0.505E-01  0.505E-01
 -15.391  0.514E-01  0.514E-01
 -15.381  0.523E-01  0.523E-01
 -15.371  0.531E-01  0.531E-01
 -15.361  0.538E-01  0.538E-01
 -15.351  0.545E-01  0.545E-01
 -15.341  0.550E-01  0.550E-01
 -15.331  0.554E-01  0.554E-01
 -15.321  0.556E-01  0.556E-01
 -15.311  0.557E-01  0.557E-01
 -15.301  0.557E-01  0.557E-01
 -15.291  0.554E-01  0.554E-01
 -15.281  0.550E-01  0.550E-01
 -15.271  0.545E-01  0.545E-01
 -15.261  0.538E-01  0.538E-01
 -15.251  0.529E-01  0.529E-01
 -15.241  0.519E-01  0.519E-01
 -15.231  0.508E-01  0.508E-01
 -15.221  0.496E-01  0.496E-01
 -15.211  0.484E-01  0.484E-01
 -15.201  0.472E-01  0.472E-01
 -15.191  0.461E-01  0.461E-01
 -15.181  0.450E-01  0.450E-01
 -15.171  0.440E-01  0.440E-01
 -15.161  0.432E-01  0.432E-01
 -15.151  0.426E-01  0.426E-01
 -15.141  0.421E-01  0.421E-01
 -15.131  0.419E-01  0.419E-01
 -15.121  0.420E-01  0.420E-01
 -15.111  0.422E-01  0.422E-01
 -15.101  0.428E-01  0.428E-01
 -15.091  0.435E-01  0.435E-01
 -15.081  0.445E-01  0.445E-01
 -15.071  0.456E-01  0.456E-01
 -15.061  0.469E-01  0.469E-01
 -15.051  0.483E-01  0.483E-01
 -15.041  0.497E-01  0.497E-01
 -15.031  0.512E-01  0.512E-01
 -15.021  0.526E-01  0.526E-01
 -15.011  0.539E-01  0.539E-01
 -15.001  0.551E-01  0.551E-01
 -14.991  0.561E-01  0.561E-01
 -14.981  0.570E-01  0.570E-01
 -14.971  0.576E-01  0.576E-01
 -14.961  0.580E-01  0.580E-01
 -14.951  0.583E-01  0.583E-01
 -14.941  0.583E-01  0.583E-01
 -14.931  0.582E-01  0.582E-01
 -14.921  0.580E-01  0.580E-01
 -14.911  0.578E-01  0.578E-01
 -14.901  0.575E-01  0.575E-01
 -14.891  0.573E-01  0.573E-01
 -14.881  0.573E-01  0.573E-01
 -14.871  0.575E-01  0.575E-01
 -14.861  0.578E-01  0.578E-01
 -14.851  0.585E-01  0.585E-01
 -14.841  0.595E-01  0.595E-01
 -14.831  0.607E-01  0.607E-01
 -14.821  0.622E-01  0.622E-01
 -14.811  0.640E-01  0.640E-01
 -14.801  0.660E-01  0.660E-01
 -14.791  0.681E-01  0.681E-01
 -14.781  0.704E-01  0.704E-01
 -14.771  0.726E-01  0.726E-01
 -14.761  0.748E-01  0.748E-01
 -14.751  0.769E-01  0.769E-01
 -14.741  0.787E-01  0.787E-01
 -14.731  0.802E-01  0.802E-01
 -14.721  0.815E-01  0.815E-01
 -14.711  0.823E-01  0.823E-01
 -14.701  0.828E-01  0.828E-01
 -14.691  0.829E-01  0.829E-01
 -14.681  0.826E-01  0.826E-01
 -14.671  0.819E-01  0.819E-01
 -14.661  0.810E-01  0.810E-01
 -14.651  0.798E-01  0.798E-01
 -14.641  0.783E-01  0.783E-01
 -14.631  0.768E-01  0.768E-01
 -14.621  0.751E-01  0.751E-01
 -14.611  0.734E-01  0.734E-01
 -14.601  0.717E-01  0.717E-01
 -14.591  0.701E-01  0.701E-01
 -14.581  0.687E-01  0.687E-01
 -14.571  0.673E-01  0.673E-01
 -14.561  0.662E-01  0.662E-01
 -14.551  0.652E-01  0.652E-01
 -14.541  0.645E-01  0.645E-01
 -14.531  0.640E-01  0.640E-01
 -14.521  0.636E-01  0.636E-01
 -14.511  0.635E-01  0.635E-01
 -14.501  0.635E-01  0.635E-01
 -14.491  0.637E-01  0.637E-01
 -14.481  0.641E-01  0.641E-01
 -14.471  0.645E-01  0.645E-01
 -14.461  0.650E-01  0.650E-01
 -14.451  0.656E-01  0.656E-01
 -14.441  0.662E-01  0.662E-01
 -14.431  0.667E-01  0.667E-01
 -14.421  0.672E-01  0.672E-01
 -14.411  0.675E-01  0.675E-01
 -14.401  0.677E-01  0.677E-01
 -14.391  0.678E-01  0.678E-01
 -14.381  0.677E-01  0.677E-01
 -14.371  0.674E-01  0.674E-01
 -14.361  0.668E-01  0.668E-01
 -14.351  0.661E-01  0.661E-01
 -14.341  0.652E-01  0.652E-01
 -14.331  0.641E-01  0.641E-01
 -14.321  0.628E-01  0.628E-01
 -14.311  0.615E-01  0.615E-01
 -14.301  0.601E-01  0.601E-01
 -14.291  0.588E-01  0.588E-01
 -14.281  0.574E-01  0.574E-01
 -14.271  0.562E-01  0.562E-01
 -14.261  0.551E-01  0.551E-01
 -14.251  0.542E-01  0.542E-01
 -14.241  0.535E-01  0.535E-01
 -14.231  0.530E-01  0.530E-01
 -14.221  0.528E-01  0.528E-01
 -14.211  0.528E-01  0.528E-01
 -14.201  0.530E-01  0.530E-01
 -14.191  0.535E-01  0.535E-01
 -14.181  0.541E-01  0.541E-01
 -14.171  0.548E-01  0.548E-01
 -14.161  0.557E-01  0.557E-01
 -14.151  0.566E-01  0.566E-01
 -14.141  0.575E-01  0.575E-01
 -14.131  0.584E-01  0.584E-01
 -14.121  0.592E-01  0.592E-01
 -14.111  0.599E-01  0.599E-01
 -14.101  0.604E-01  0.604E-01
 -14.091  0.608E-01  0.608E-01
 -14.081  0.610E-01  0.610E-01
 -14.071  0.610E-01  0.610E-01
 -14.061  0.609E-01  0.609E-01
 -14.051  0.605E-01  0.605E-01
 -14.041  0.599E-01  0.599E-01
 -14.031  0.592E-01  0.592E-01
 -14.021  0.583E-01  0.583E-01
 -14.011  0.573E-01  0.573E-01
 -14.001  0.562E-01  0.562E-01
 -13.991  0.550E-01  0.550E-01
 -13.981  0.538E-01  0.538E-01
 -13.971  0.526E-01  0.526E-01
 -13.961  0.514E-01  0.514E-01
 -13.951  0.503E-01  0.503E-01
 -13.941  0.493E-01  0.493E-01
 -13.931  0.484E-01  0.484E-01
 -13.921  0.476E-01  0.476E-01
 -13.911  0.471E-01  0.471E-01
 -13.901  0.467E-01  0.467E-01
 -13.891  0.465E-01  0.465E-01
 -13.881  0.465E-01  0.465E-01
 -13.871  0.466E-01  0.466E-01
 -13.861  0.470E-01  0.470E-01
 -13.851  0.475E-01  0.475E-01
 -13.841  0.481E-01  0.481E-01
 -13.831  0.489E-01  0.489E-01
 -13.821  0.497E-01  0.497E-01
 -13.811  0.505E-01  0.505E-01
 -13.801  0.513E-01  0.513E-01
 -13.791  0.521E-01  0.521E-01
 -13.781  0.529E-01  0.529E-01
 -13.771  0.535E-01  0.535E-01
 -13.761  0.541E-01  0.541E-01
 -13.751  0.545E-01  0.545E-01
 -13.741  0.547E-01  0.547E-01
 -13.731  0.548E-01  0.548E-01
 -13.721  0.548E-01  0.548E-01
 -13.711  0.546E-01  0.546E-01
 -13.701  0.543E-01  0.543E-01
 -13.691  0.538E-01  0.538E-01
 -13.681  0.532E-01  0.532E-01
 -13.671  0.525E-01  0.525E-01
 -13.661  0.517E-01  0.517E-01
 -13.651  0.508E-01  0.508E-01
 -13.641  0.499E-01  0.499E-01
 -13.631  0.489E-01  0.489E-01
 -13.621  0.478E-01  0.478E-01
 -13.611  0.468E-01  0.468E-01
 -13.601  0.457E-01  0.457E-01
 -13.591  0.447E-01  0.447E-01
 -13.581  0.438E-01  0.438E-01
 -13.571  0.429E-01  0.429E-01
 -13.561  0.421E-01  0.421E-01
 -13.551  0.414E-01  0.414E-01
 -13.541  0.409E-01  0.409E-01
 -13.531  0.405E-01  0.405E-01
 -13.521  0.404E-01  0.404E-01
 -13.511  0.404E-01  0.404E-01
 -13.501  0.406E-01  0.406E-01
 -13.491  0.410E-01  0.410E-01
 -13.481  0.416E-01  0.416E-01
 -13.471  0.424E-01  0.424E-01
 -13.461  0.433E-01  0.433E-01
 -13.451  0.444E-01  0.444E-01
 -13.441  0.455E-01  0.455E-01
 -13.431  0.467E-01  0.467E-01
 -13.421  0.479E-01  0.479E-01
 -13.411  0.490E-01  0.490E-01
 -13.401  0.499E-01  0.499E-01
 -13.391  0.508E-01  0.508E-01
 -13.381  0.514E-01  0.514E-01
 -13.371  0.518E-01  0.518E-01
 -13.361  0.519E-01  0.519E-01
 -13.351  0.518E-01  0.518E-01
 -13.341  0.514E-01  0.514E-01
 -13.331  0.507E-01  0.507E-01
 -13.321  0.497E-01  0.497E-01
 -13.311  0.486E-01  0.486E-01
 -13.301  0.473E-01  0.473E-01
 -13.291  0.458E-01  0.458E-01
 -13.281  0.443E-01  0.443E-01
 -13.271  0.427E-01  0.427E-01
 -13.261  0.411E-01  0.411E-01
 -13.251  0.397E-01  0.397E-01
 -13.241  0.383E-01  0.383E-01
 -13.231  0.372E-01  0.372E-01
 -13.221  0.362E-01  0.362E-01
 -13.211  0.355E-01  0.355E-01
 -13.201  0.351E-01  0.351E-01
 -13.191  0.349E-01  0.349E-01
 -13.181  0.349E-01  0.349E-01
 -13.171  0.352E-01  0.352E-01
 -13.161  0.357E-01  0.357E-01
 -13.151  0.364E-01  0.364E-01
 -13.141  0.373E-01  0.373E-01
 -13.131  0.382E-01  0.382E-01
 -13.121  0.393E-01  0.393E-01
 -13.111  0.403E-01  0.403E-01
 -13.101  0.414E-01  0.414E-01
 -13.091  0.424E-01  0.424E-01
 -13.081  0.433E-01  0.433E-01
 -13.071  0.440E-01  0.440E-01
 -13.061  0.447E-01  0.447E-01
 -13.051  0.451E-01  0.451E-01
 -13.041  0.454E-01  0.454E-01
 -13.031  0.455E-01  0.455E-01
 -13.021  0.454E-01  0.454E-01
 -13.011  0.452E-01  0.452E-01
 -13.001  0.448E-01  0.448E-01
 -12.991  0.443E-01  0.443E-01
 -12.981  0.437E-01  0.437E-01
 -12.971  0.430E-01  0.430E-01
 -12.961  0.423E-01  0.423E-01
 -12.951  0.415E-01  0.415E-01
 -12.941  0.407E-01  0.407E-01
 -12.931  0.399E-01  0.399E-01
 -12.921  0.392E-01  0.392E-01
 -12.911  0.385E-01  0.385E-01
 -12.901  0.379E-01  0.379E-01
 -12.891  0.373E-01  0.373E-01
 -12.881  0.369E-01  0.369E-01
 -12.871  0.365E-01  0.365E-01
 -12.861  0.361E-01  0.361E-01
 -12.851  0.359E-01  0.359E-01
 -12.841  0.358E-01  0.358E-01
 -12.831  0.357E-01  0.357E-01
 -12.821  0.357E-01  0.357E-01
 -12.811  0.357E-01  0.357E-01
 -12.801  0.358E-01  0.358E-01
 -12.791  0.359E-01  0.359E-01
 -12.781  0.361E-01  0.361E-01
 -12.771  0.363E-01  0.363E-01
 -12.761  0.365E-01  0.365E-01
 -12.751  0.367E-01  0.367E-01
 -12.741  0.369E-01  0.369E-01
 -12.731  0.372E-01  0.372E-01
 -12.721  0.374E-01  0.374E-01
 -12.711  0.376E-01  0.376E-01
 -12.701  0.378E-01  0.378E-01
 -12.691  0.379E-01  0.379E-01
 -12.681  0.381E-01  0.381E-01
 -12.671  0.383E-01  0.383E-01
 -12.661  0.385E-01  0.385E-01
 -12.651  0.387E-01  0.387E-01
 -12.641  0.389E-01  0.389E-01
 -12.631  0.391E-01  0.391E-01
 -12.621  0.393E-01  0.393E-01
 -12.611  0.395E-01  0.395E-01
 -12.601  0.397E-01  0.397E-01
 -12.591  0.399E-01  0.399E-01
 -12.581  0.400E-01  0.400E-01
 -12.571  0.401E-01  0.401E-01
 -12.561  0.402E-01  0.402E-01
 -12.551  0.401E-01  0.401E-01
 -12.541  0.400E-01  0.400E-01
 -12.531  0.398E-01  0.398E-01
 -12.521  0.396E-01  0.396E-01
 -12.511  0.392E-01  0.392E-01
 -12.501  0.388E-01  0.388E-01
 -12.491  0.383E-01  0.383E-01
 -12.481  0.377E-01  0.377E-01
 -12.471  0.372E-01  0.372E-01
 -12.461  0.366E-01  0.366E-01
 -12.451  0.360E-01  0.360E-01
 -12.441  0.355E-01  0.355E-01
 -12.431  0.350E-01  0.350E-01
 -12.421  0.346E-01  0.346E-01
 -12.411  0.343E-01  0.343E-01
 -12.401  0.340E-01  0.340E-01
 -12.391  0.339E-01  0.339E-01
 -12.381  0.339E-01  0.339E-01
 -12.371  0.340E-01  0.340E-01
 -12.361  0.341E-01  0.341E-01
 -12.351  0.344E-01  0.344E-01
 -12.341  0.346E-01  0.346E-01
 -12.331  0.350E-01  0.350E-01
 -12.321  0.353E-01  0.353E-01
 -12.311  0.357E-01  0.357E-01
 -12.301  0.360E-01  0.360E-01
 -12.291  0.363E-01  0.363E-01
 -12.281  0.366E-01  0.366E-01
 -12.271  0.368E-01  0.368E-01
 -12.261  0.369E-01  0.369E-01
 -12.251  0.370E-01  0.370E-01
 -12.241  0.370E-01  0.370E-01
 -12.231  0.369E-01  0.369E-01
 -12.221  0.367E-01  0.367E-01
 -12.211  0.365E-01  0.365E-01
 -12.201  0.363E-01  0.363E-01
 -12.191  0.360E-01  0.360E-01
 -12.181  0.357E-01  0.357E-01
 -12.171  0.354E-01  0.354E-01
 -12.161  0.351E-01  0.351E-01
 -12.151  0.348E-01  0.348E-01
 -12.141  0.346E-01  0.346E-01
 -12.131  0.345E-01  0.345E-01
 -12.121  0.344E-01  0.344E-01
 -12.111  0.345E-01  0.345E-01
 -12.101  0.346E-01  0.346E-01
 -12.091  0.348E-01  0.348E-01
 -12.081  0.351E-01  0.351E-01
 -12.071  0.355E-01  0.355E-01
 -12.061  0.360E-01  0.360E-01
 -12.051  0.365E-01  0.365E-01
 -12.041  0.371E-01  0.371E-01
 -12.031  0.377E-01  0.377E-01
 -12.021  0.382E-01  0.382E-01
 -12.011  0.388E-01  0.388E-01
 -12.001  0.393E-01  0.393E-01
 -11.991  0.397E-01  0.397E-01
 -11.981  0.400E-01  0.400E-01
 -11.971  0.401E-01  0.401E-01
 -11.961  0.402E-01  0.402E-01
 -11.951  0.400E-01  0.400E-01
 -11.941  0.397E-01  0.397E-01
 -11.931  0.393E-01  0.393E-01
 -11.921  0.386E-01  0.386E-01
 -11.911  0.378E-01  0.378E-01
 -11.901  0.369E-01  0.369E-01
 -11.891  0.358E-01  0.358E-01
 -11.881  0.345E-01  0.345E-01
 -11.871  0.332E-01  0.332E-01
 -11.861  0.319E-01  0.319E-01
 -11.851  0.305E-01  0.305E-01
 -11.841  0.291E-01  0.291E-01
 -11.831  0.279E-01  0.279E-01
 -11.821  0.267E-01  0.267E-01
 -11.811  0.257E-01  0.257E-01
 -11.801  0.248E-01  0.248E-01
 -11.791  0.243E-01  0.243E-01
 -11.781  0.239E-01  0.239E-01
 -11.771  0.239E-01  0.239E-01
 -11.761  0.241E-01  0.241E-01
 -11.751  0.247E-01  0.247E-01
 -11.741  0.256E-01  0.256E-01
 -11.731  0.267E-01  0.267E-01
 -11.721  0.282E-01  0.282E-01
 -11.711  0.298E-01  0.298E-01
 -11.701  0.317E-01  0.317E-01
 -11.691  0.336E-01  0.336E-01
 -11.681  0.356E-01  0.356E-01
 -11.671  0.377E-01  0.377E-01
 -11.661  0.396E-01  0.396E-01
 -11.651  0.414E-01  0.414E-01
 -11.641  0.431E-01  0.431E-01
 -11.631  0.444E-01  0.444E-01
 -11.621  0.455E-01  0.455E-01
 -11.611  0.462E-01  0.462E-01
 -11.601  0.466E-01  0.466E-01
 -11.591  0.466E-01  0.466E-01
 -11.581  0.462E-01  0.462E-01
 -11.571  0.455E-01  0.455E-01
 -11.561  0.444E-01  0.444E-01
 -11.551  0.430E-01  0.430E-01
 -11.541  0.414E-01  0.414E-01
 -11.531  0.395E-01  0.395E-01
 -11.521  0.375E-01  0.375E-01
 -11.511  0.354E-01  0.354E-01
 -11.501  0.333E-01  0.333E-01
 -11.491  0.312E-01  0.312E-01
 -11.481  0.291E-01  0.291E-01
 -11.471  0.272E-01  0.272E-01
 -11.461  0.255E-01  0.255E-01
 -11.451  0.241E-01  0.241E-01
 -11.441  0.228E-01  0.228E-01
 -11.431  0.219E-01  0.219E-01
 -11.421  0.213E-01  0.213E-01
 -11.411  0.210E-01  0.210E-01
 -11.401  0.210E-01  0.210E-01
 -11.391  0.213E-01  0.213E-01
 -11.381  0.218E-01  0.218E-01
 -11.371  0.227E-01  0.227E-01
 -11.361  0.238E-01  0.238E-01
 -11.351  0.251E-01  0.251E-01
 -11.341  0.266E-01  0.266E-01
 -11.331  0.282E-01  0.282E-01
 -11.321  0.298E-01  0.298E-01
 -11.311  0.315E-01  0.315E-01
 -11.301  0.332E-01  0.332E-01
 -11.291  0.347E-01  0.347E-01
 -11.281  0.362E-01  0.362E-01
 -11.271  0.375E-01  0.375E-01
 -11.261  0.385E-01  0.385E-01
 -11.251  0.394E-01  0.394E-01
 -11.241  0.400E-01  0.400E-01
 -11.231  0.403E-01  0.403E-01
 -11.221  0.404E-01  0.404E-01
 -11.211  0.402E-01  0.402E-01
 -11.201  0.398E-01  0.398E-01
 -11.191  0.391E-01  0.391E-01
 -11.181  0.383E-01  0.383E-01
 -11.171  0.373E-01  0.373E-01
 -11.161  0.361E-01  0.361E-01
 -11.151  0.349E-01  0.349E-01
 -11.141  0.336E-01  0.336E-01
 -11.131  0.323E-01  0.323E-01
 -11.121  0.310E-01  0.310E-01
 -11.111  0.298E-01  0.298E-01
 -11.101  0.287E-01  0.287E-01
 -11.091  0.277E-01  0.277E-01
 -11.081  0.269E-01  0.269E-01
 -11.071  0.262E-01  0.262E-01
 -11.061  0.257E-01  0.257E-01
 -11.051  0.254E-01  0.254E-01
 -11.041  0.254E-01  0.254E-01
 -11.031  0.255E-01  0.255E-01
 -11.021  0.259E-01  0.259E-01
 -11.011  0.264E-01  0.264E-01
 -11.001  0.271E-01  0.271E-01
 -10.991  0.280E-01  0.280E-01
 -10.981  0.289E-01  0.289E-01
 -10.971  0.300E-01  0.300E-01
 -10.961  0.310E-01  0.310E-01
 -10.951  0.321E-01  0.321E-01
 -10.941  0.331E-01  0.331E-01
 -10.931  0.340E-01  0.340E-01
 -10.921  0.347E-01  0.347E-01
 -10.911  0.353E-01  0.353E-01
 -10.901  0.357E-01  0.357E-01
 -10.891  0.358E-01  0.358E-01
 -10.881  0.357E-01  0.357E-01
 -10.871  0.354E-01  0.354E-01
 -10.861  0.348E-01  0.348E-01
 -10.851  0.341E-01  0.341E-01
 -10.841  0.331E-01  0.331E-01
 -10.831  0.320E-01  0.320E-01
 -10.821  0.309E-01  0.309E-01
 -10.811  0.296E-01  0.296E-01
 -10.801  0.284E-01  0.284E-01
 -10.791  0.271E-01  0.271E-01
 -10.781  0.260E-01  0.260E-01
 -10.771  0.250E-01  0.250E-01
 -10.761  0.242E-01  0.242E-01
 -10.751  0.235E-01  0.235E-01
 -10.741  0.231E-01  0.231E-01
 -10.731  0.229E-01  0.229E-01
 -10.721  0.229E-01  0.229E-01
 -10.711  0.231E-01  0.231E-01
 -10.701  0.235E-01  0.235E-01
 -10.691  0.241E-01  0.241E-01
 -10.681  0.249E-01  0.249E-01
 -10.671  0.259E-01  0.259E-01
 -10.661  0.269E-01  0.269E-01
 -10.651  0.281E-01  0.281E-01
 -10.641  0.292E-01  0.292E-01
 -10.631  0.304E-01  0.304E-01
 -10.621  0.316E-01  0.316E-01
 -10.611  0.327E-01  0.327E-01
 -10.601  0.337E-01  0.337E-01
 -10.591  0.347E-01  0.347E-01
 -10.581  0.354E-01  0.354E-01
 -10.571  0.360E-01  0.360E-01
 -10.561  0.364E-01  0.364E-01
 -10.551  0.366E-01  0.366E-01
 -10.541  0.365E-01  0.365E-01
 -10.531  0.363E-01  0.363E-01
 -10.521  0.358E-01  0.358E-01
 -10.511  0.351E-01  0.351E-01
 -10.501  0.343E-01  0.343E-01
 -10.491  0.333E-01  0.333E-01
 -10.481  0.321E-01  0.321E-01
 -10.471  0.308E-01  0.308E-01
 -10.461  0.295E-01  0.295E-01
 -10.451  0.282E-01  0.282E-01
 -10.441  0.268E-01  0.268E-01
 -10.431  0.255E-01  0.255E-01
 -10.421  0.243E-01  0.243E-01
 -10.411  0.232E-01  0.232E-01
 -10.401  0.222E-01  0.222E-01
 -10.391  0.213E-01  0.213E-01
 -10.381  0.207E-01  0.207E-01
 -10.371  0.202E-01  0.202E-01
 -10.361  0.199E-01  0.199E-01
 -10.351  0.199E-01  0.199E-01
 -10.341  0.200E-01  0.200E-01
 -10.331  0.203E-01  0.203E-01
 -10.321  0.208E-01  0.208E-01
 -10.311  0.215E-01  0.215E-01
 -10.301  0.223E-01  0.223E-01
 -10.291  0.232E-01  0.232E-01
 -10.281  0.242E-01  0.242E-01
 -10.271  0.253E-01  0.253E-01
 -10.261  0.264E-01  0.264E-01
 -10.251  0.276E-01  0.276E-01
 -10.241  0.287E-01  0.287E-01
 -10.231  0.298E-01  0.298E-01
 -10.221  0.309E-01  0.309E-01
 -10.211  0.318E-01  0.318E-01
 -10.201  0.326E-01  0.326E-01
 -10.191  0.333E-01  0.333E-01
 -10.181  0.338E-01  0.338E-01
 -10.171  0.341E-01  0.341E-01
 -10.161  0.343E-01  0.343E-01
 -10.151  0.342E-01  0.342E-01
 -10.141  0.340E-01  0.340E-01
 -10.131  0.336E-01  0.336E-01
 -10.121  0.330E-01  0.330E-01
 -10.111  0.322E-01  0.322E-01
 -10.101  0.313E-01  0.313E-01
 -10.091  0.303E-01  0.303E-01
 -10.081  0.292E-01  0.292E-01
 -10.071  0.281E-01  0.281E-01
 -10.061  0.269E-01  0.269E-01
 -10.051  0.257E-01  0.257E-01
 -10.041  0.246E-01  0.246E-01
 -10.031  0.235E-01  0.235E-01
 -10.021  0.225E-01  0.225E-01
 -10.011  0.216E-01  0.216E-01
 -10.001  0.209E-01  0.209E-01
  -9.991  0.203E-01  0.203E-01
  -9.981  0.199E-01  0.199E-01
  -9.971  0.197E-01  0.197E-01
  -9.961  0.197E-01  0.197E-01
  -9.951  0.198E-01  0.198E-01
  -9.941  0.200E-01  0.200E-01
  -9.931  0.205E-01  0.205E-01
  -9.921  0.210E-01  0.210E-01
  -9.911  0.216E-01  0.216E-01
  -9.901  0.223E-01  0.223E-01
  -9.891  0.231E-01  0.231E-01
  -9.881  0.238E-01  0.238E-01
  -9.871  0.246E-01  0.246E-01
  -9.861  0.253E-01  0.253E-01
  -9.851  0.259E-01  0.259E-01
  -9.841  0.265E-01  0.265E-01
  -9.831  0.269E-01  0.269E-01
  -9.821  0.273E-01  0.273E-01
  -9.811  0.275E-01  0.275E-01
  -9.801  0.277E-01  0.277E-01
  -9.791  0.277E-01  0.277E-01
  -9.781  0.277E-01  0.277E-01
  -9.771  0.275E-01  0.275E-01
  -9.761  0.273E-01  0.273E-01
  -9.751  0.271E-01  0.271E-01
  -9.741  0.268E-01  0.268E-01
  -9.731  0.264E-01  0.264E-01
  -9.721  0.261E-01  0.261E-01
  -9.711  0.257E-01  0.257E-01
  -9.701  0.254E-01  0.254E-01
  -9.691  0.251E-01  0.251E-01
  -9.681  0.248E-01  0.248E-01
  -9.671  0.245E-01  0.245E-01
  -9.661  0.242E-01  0.242E-01
  -9.651  0.240E-01  0.240E-01
  -9.641  0.238E-01  0.238E-01
  -9.631  0.236E-01  0.236E-01
  -9.621  0.235E-01  0.235E-01
  -9.611  0.234E-01  0.234E-01
  -9.601  0.234E-01  0.234E-01
  -9.591  0.234E-01  0.234E-01
  -9.581  0.234E-01  0.234E-01
  -9.571  0.234E-01  0.234E-01
  -9.561  0.235E-01  0.235E-01
  -9.551  0.236E-01  0.236E-01
  -9.541  0.236E-01  0.236E-01
  -9.531  0.237E-01  0.237E-01
  -9.521  0.237E-01  0.237E-01
  -9.511  0.237E-01  0.237E-01
  -9.501  0.237E-01  0.237E-01
  -9.491  0.236E-01  0.236E-01
  -9.481  0.235E-01  0.235E-01
  -9.471  0.233E-01  0.233E-01
  -9.461  0.230E-01  0.230E-01
  -9.451  0.227E-01  0.227E-01
  -9.441  0.224E-01  0.224E-01
  -9.431  0.220E-01  0.220E-01
  -9.421  0.215E-01  0.215E-01
  -9.411  0.211E-01  0.211E-01
  -9.401  0.206E-01  0.206E-01
  -9.391  0.202E-01  0.202E-01
  -9.381  0.198E-01  0.198E-01
  -9.371  0.194E-01  0.194E-01
  -9.361  0.191E-01  0.191E-01
  -9.351  0.188E-01  0.188E-01
  -9.341  0.187E-01  0.187E-01
  -9.331  0.186E-01  0.186E-01
  -9.321  0.186E-01  0.186E-01
  -9.311  0.188E-01  0.188E-01
  -9.301  0.189E-01  0.189E-01
  -9.291  0.192E-01  0.192E-01
  -9.281  0.196E-01  0.196E-01
  -9.271  0.200E-01  0.200E-01
  -9.261  0.204E-01  0.204E-01
  -9.251  0.209E-01  0.209E-01
  -9.241  0.214E-01  0.214E-01
  -9.231  0.219E-01  0.219E-01
  -9.221  0.224E-01  0.224E-01
  -9.211  0.228E-01  0.228E-01
  -9.201  0.233E-01  0.233E-01
  -9.191  0.237E-01  0.237E-01
  -9.181  0.240E-01  0.240E-01
  -9.171  0.243E-01  0.243E-01
  -9.161  0.245E-01  0.245E-01
  -9.151  0.247E-01  0.247E-01
  -9.141  0.247E-01  0.247E-01
  -9.131  0.247E-01  0.247E-01
  -9.121  0.246E-01  0.246E-01
  -9.111  0.244E-01  0.244E-01
  -9.101  0.241E-01  0.241E-01
  -9.091  0.237E-01  0.237E-01
  -9.081  0.233E-01  0.233E-01
  -9.071  0.227E-01  0.227E-01
  -9.061  0.221E-01  0.221E-01
  -9.051  0.214E-01  0.214E-01
  -9.041  0.207E-01  0.207E-01
  -9.031  0.199E-01  0.199E-01
  -9.021  0.191E-01  0.191E-01
  -9.011  0.182E-01  0.182E-01
  -9.001  0.174E-01  0.174E-01
  -8.991  0.166E-01  0.166E-01
  -8.981  0.159E-01  0.159E-01
  -8.971  0.152E-01  0.152E-01
  -8.961  0.146E-01  0.146E-01
  -8.951  0.140E-01  0.140E-01
  -8.941  0.136E-01  0.136E-01
  -8.931  0.133E-01  0.133E-01
  -8.921  0.132E-01  0.132E-01
  -8.911  0.131E-01  0.131E-01
  -8.901  0.132E-01  0.132E-01
  -8.891  0.134E-01  0.134E-01
  -8.881  0.137E-01  0.137E-01
  -8.871  0.141E-01  0.141E-01
  -8.861  0.146E-01  0.146E-01
  -8.851  0.151E-01  0.151E-01
  -8.841  0.157E-01  0.157E-01
  -8.831  0.163E-01  0.163E-01
  -8.821  0.169E-01  0.169E-01
  -8.811  0.176E-01  0.176E-01
  -8.801  0.181E-01  0.181E-01
  -8.791  0.187E-01  0.187E-01
  -8.781  0.191E-01  0.191E-01
  -8.771  0.195E-01  0.195E-01
  -8.761  0.198E-01  0.198E-01
  -8.751  0.200E-01  0.200E-01
  -8.741  0.201E-01  0.201E-01
  -8.731  0.201E-01  0.201E-01
  -8.721  0.200E-01  0.200E-01
  -8.711  0.198E-01  0.198E-01
  -8.701  0.196E-01  0.196E-01
  -8.691  0.192E-01  0.192E-01
  -8.681  0.188E-01  0.188E-01
  -8.671  0.184E-01  0.184E-01
  -8.661  0.179E-01  0.179E-01
  -8.651  0.173E-01  0.173E-01
  -8.641  0.168E-01  0.168E-01
  -8.631  0.162E-01  0.162E-01
  -8.621  0.157E-01  0.157E-01
  -8.611  0.151E-01  0.151E-01
  -8.601  0.146E-01  0.146E-01
  -8.591  0.141E-01  0.141E-01
  -8.581  0.136E-01  0.136E-01
  -8.571  0.132E-01  0.132E-01
  -8.561  0.128E-01  0.128E-01
  -8.551  0.125E-01  0.125E-01
  -8.541  0.123E-01  0.123E-01
  -8.531  0.121E-01  0.121E-01
  -8.521  0.119E-01  0.119E-01
  -8.511  0.118E-01  0.118E-01
  -8.501  0.118E-01  0.118E-01
  -8.491  0.118E-01  0.118E-01
  -8.481  0.119E-01  0.119E-01
  -8.471  0.120E-01  0.120E-01
  -8.461  0.121E-01  0.121E-01
  -8.451  0.122E-01  0.122E-01
  -8.441  0.123E-01  0.123E-01
  -8.431  0.125E-01  0.125E-01
  -8.421  0.126E-01  0.126E-01
  -8.411  0.127E-01  0.127E-01
  -8.401  0.127E-01  0.127E-01
  -8.391  0.128E-01  0.128E-01
  -8.381  0.128E-01  0.128E-01
  -8.371  0.127E-01  0.127E-01
  -8.361  0.126E-01  0.126E-01
  -8.351  0.125E-01  0.125E-01
  -8.341  0.124E-01  0.124E-01
  -8.331  0.122E-01  0.122E-01
  -8.321  0.121E-01  0.121E-01
  -8.311  0.119E-01  0.119E-01
  -8.301  0.118E-01  0.118E-01
  -8.291  0.116E-01  0.116E-01
  -8.281  0.115E-01  0.115E-01
  -8.271  0.114E-01  0.114E-01
  -8.261  0.114E-01  0.114E-01
  -8.251  0.114E-01  0.114E-01
  -8.241  0.114E-01  0.114E-01
  -8.231  0.115E-01  0.115E-01
  -8.221  0.115E-01  0.115E-01
  -8.211  0.116E-01  0.116E-01
  -8.201  0.118E-01  0.118E-01
  -8.191  0.119E-01  0.119E-01
  -8.181  0.121E-01  0.121E-01
  -8.171  0.122E-01  0.122E-01
  -8.161  0.124E-01  0.124E-01
  -8.151  0.125E-01  0.125E-01
  -8.141  0.126E-01  0.126E-01
  -8.131  0.127E-01  0.127E-01
  -8.121  0.127E-01  0.127E-01
  -8.111  0.127E-01  0.127E-01
  -8.101  0.127E-01  0.127E-01
  -8.091  0.126E-01  0.126E-01
  -8.081  0.124E-01  0.124E-01
  -8.071  0.123E-01  0.123E-01
  -8.061  0.121E-01  0.121E-01
  -8.051  0.118E-01  0.118E-01
  -8.041  0.115E-01  0.115E-01
  -8.031  0.112E-01  0.112E-01
  -8.021  0.108E-01  0.108E-01
  -8.011  0.104E-01  0.104E-01
  -8.001  0.101E-01  0.101E-01
  -7.991  0.967E-02  0.967E-02
  -7.981  0.929E-02  0.929E-02
  -7.971  0.892E-02  0.892E-02
  -7.961  0.858E-02  0.858E-02
  -7.951  0.827E-02  0.827E-02
  -7.941  0.800E-02  0.800E-02
  -7.931  0.778E-02  0.778E-02
  -7.921  0.760E-02  0.760E-02
  -7.911  0.747E-02  0.747E-02
  -7.901  0.739E-02  0.739E-02
  -7.891  0.736E-02  0.736E-02
  -7.881  0.738E-02  0.738E-02
  -7.871  0.745E-02  0.745E-02
  -7.861  0.756E-02  0.756E-02
  -7.851  0.770E-02  0.770E-02
  -7.841  0.786E-02  0.786E-02
  -7.831  0.806E-02  0.806E-02
  -7.821  0.826E-02  0.826E-02
  -7.811  0.847E-02  0.847E-02
  -7.801  0.868E-02  0.868E-02
  -7.791  0.889E-02  0.889E-02
  -7.781  0.908E-02  0.908E-02
  -7.771  0.925E-02  0.925E-02
  -7.761  0.940E-02  0.940E-02
  -7.751  0.952E-02  0.952E-02
  -7.741  0.962E-02  0.962E-02
  -7.731  0.969E-02  0.969E-02
  -7.721  0.972E-02  0.972E-02
  -7.711  0.973E-02  0.973E-02
  -7.701  0.970E-02  0.970E-02
  -7.691  0.965E-02  0.965E-02
  -7.681  0.958E-02  0.958E-02
  -7.671  0.948E-02  0.948E-02
  -7.661  0.936E-02  0.936E-02
  -7.651  0.922E-02  0.922E-02
  -7.641  0.907E-02  0.907E-02
  -7.631  0.890E-02  0.890E-02
  -7.621  0.873E-02  0.873E-02
  -7.611  0.855E-02  0.855E-02
  -7.601  0.836E-02  0.836E-02
  -7.591  0.818E-02  0.818E-02
  -7.581  0.801E-02  0.801E-02
  -7.571  0.784E-02  0.784E-02
  -7.561  0.768E-02  0.768E-02
  -7.551  0.753E-02  0.753E-02
  -7.541  0.740E-02  0.740E-02
  -7.531  0.729E-02  0.729E-02
  -7.521  0.719E-02  0.719E-02
  -7.511  0.711E-02  0.711E-02
  -7.501  0.705E-02  0.705E-02
  -7.491  0.700E-02  0.700E-02
  -7.481  0.696E-02  0.696E-02
  -7.471  0.693E-02  0.693E-02
  -7.461  0.690E-02  0.690E-02
  -7.451  0.686E-02  0.686E-02
  -7.441  0.683E-02  0.683E-02
  -7.431  0.678E-02  0.678E-02
  -7.421  0.671E-02  0.671E-02
  -7.411  0.663E-02  0.663E-02
  -7.401  0.653E-02  0.653E-02
  -7.391  0.642E-02  0.642E-02
  -7.381  0.628E-02  0.628E-02
  -7.371  0.614E-02  0.614E-02
  -7.361  0.598E-02  0.598E-02
  -7.351  0.582E-02  0.582E-02
  -7.341  0.567E-02  0.567E-02
  -7.331  0.552E-02  0.552E-02
  -7.321  0.539E-02  0.539E-02
  -7.311  0.528E-02  0.528E-02
  -7.301  0.520E-02  0.520E-02
  -7.291  0.515E-02  0.515E-02
  -7.281  0.514E-02  0.514E-02
  -7.271  0.517E-02  0.517E-02
  -7.261  0.523E-02  0.523E-02
  -7.251  0.534E-02  0.534E-02
  -7.241  0.547E-02  0.547E-02
  -7.231  0.564E-02  0.564E-02
  -7.221  0.583E-02  0.583E-02
  -7.211  0.603E-02  0.603E-02
  -7.201  0.625E-02  0.625E-02
  -7.191  0.646E-02  0.646E-02
  -7.181  0.667E-02  0.667E-02
  -7.171  0.685E-02  0.685E-02
  -7.161  0.702E-02  0.702E-02
  -7.151  0.715E-02  0.715E-02
  -7.141  0.724E-02  0.724E-02
  -7.131  0.729E-02  0.729E-02
  -7.121  0.729E-02  0.729E-02
  -7.111  0.725E-02  0.725E-02
  -7.101  0.715E-02  0.715E-02
  -7.091  0.701E-02  0.701E-02
  -7.081  0.682E-02  0.682E-02
  -7.071  0.659E-02  0.659E-02
  -7.061  0.633E-02  0.633E-02
  -7.051  0.603E-02  0.603E-02
  -7.041  0.572E-02  0.572E-02
  -7.031  0.540E-02  0.540E-02
  -7.021  0.507E-02  0.507E-02
  -7.011  0.474E-02  0.474E-02
  -7.001  0.443E-02  0.443E-02
  -6.991  0.414E-02  0.414E-02
  -6.981  0.387E-02  0.387E-02
  -6.971  0.364E-02  0.364E-02
  -6.961  0.345E-02  0.345E-02
  -6.951  0.330E-02  0.330E-02
  -6.941  0.318E-02  0.318E-02
  -6.931  0.312E-02  0.312E-02
  -6.921  0.309E-02  0.309E-02
  -6.911  0.310E-02  0.310E-02
  -6.901  0.315E-02  0.315E-02
  -6.891  0.323E-02  0.323E-02
  -6.881  0.334E-02  0.334E-02
  -6.871  0.347E-02  0.347E-02
  -6.861  0.361E-02  0.361E-02
  -6.851  0.377E-02  0.377E-02
  -6.841  0.392E-02  0.392E-02
  -6.831  0.408E-02  0.408E-02
  -6.821  0.423E-02  0.423E-02
  -6.811  0.437E-02  0.437E-02
  -6.801  0.449E-02  0.449E-02
  -6.791  0.460E-02  0.460E-02
  -6.781  0.469E-02  0.469E-02
  -6.771  0.476E-02  0.476E-02
  -6.761  0.481E-02  0.481E-02
  -6.751  0.484E-02  0.484E-02
  -6.741  0.484E-02  0.484E-02
  -6.731  0.483E-02  0.483E-02
  -6.721  0.480E-02  0.480E-02
  -6.711  0.475E-02  0.475E-02
  -6.701  0.468E-02  0.468E-02
  -6.691  0.459E-02  0.459E-02
  -6.681  0.449E-02  0.449E-02
  -6.671  0.438E-02  0.438E-02
  -6.661  0.426E-02  0.426E-02
  -6.651  0.413E-02  0.413E-02
  -6.641  0.399E-02  0.399E-02
  -6.631  0.385E-02  0.385E-02
  -6.621  0.370E-02  0.370E-02
  -6.611  0.356E-02  0.356E-02
  -6.601  0.341E-02  0.341E-02
  -6.591  0.328E-02  0.328E-02
  -6.581  0.314E-02  0.314E-02
  -6.571  0.302E-02  0.302E-02
  -6.561  0.290E-02  0.290E-02
  -6.551  0.279E-02  0.279E-02
  -6.541  0.269E-02  0.269E-02
  -6.531  0.261E-02  0.261E-02
  -6.521  0.253E-02  0.253E-02
  -6.511  0.247E-02  0.247E-02
  -6.501  0.242E-02  0.242E-02
  -6.491  0.239E-02  0.239E-02
  -6.481  0.236E-02  0.236E-02
  -6.471  0.235E-02  0.235E-02
  -6.461  0.235E-02  0.235E-02
  -6.451  0.236E-02  0.236E-02
  -6.441  0.238E-02  0.238E-02
  -6.431  0.240E-02  0.240E-02
  -6.421  0.244E-02  0.244E-02
  -6.411  0.248E-02  0.248E-02
  -6.401  0.253E-02  0.253E-02
  -6.391  0.258E-02  0.258E-02
  -6.381  0.263E-02  0.263E-02
  -6.371  0.268E-02  0.268E-02
  -6.361  0.273E-02  0.273E-02
  -6.351  0.277E-02  0.277E-02
  -6.341  0.280E-02  0.280E-02
  -6.331  0.282E-02  0.282E-02
  -6.321  0.283E-02  0.283E-02
  -6.311  0.283E-02  0.283E-02
  -6.301  0.282E-02  0.282E-02
  -6.291  0.279E-02  0.279E-02
  -6.281  0.275E-02  0.275E-02
  -6.271  0.270E-02  0.270E-02
  -6.261  0.263E-02  0.263E-02
  -6.251  0.256E-02  0.256E-02
  -6.241  0.248E-02  0.248E-02
  -6.231  0.239E-02  0.239E-02
  -6.221  0.230E-02  0.230E-02
  -6.211  0.220E-02  0.220E-02
  -6.201  0.211E-02  0.211E-02
  -6.191  0.202E-02  0.202E-02
  -6.181  0.193E-02  0.193E-02
  -6.171  0.185E-02  0.185E-02
  -6.161  0.177E-02  0.177E-02
  -6.151  0.170E-02  0.170E-02
  -6.141  0.164E-02  0.164E-02
  -6.131  0.158E-02  0.158E-02
  -6.121  0.153E-02  0.153E-02
  -6.111  0.149E-02  0.149E-02
  -6.101  0.146E-02  0.146E-02
  -6.091  0.144E-02  0.144E-02
  -6.081  0.142E-02  0.142E-02
  -6.071  0.140E-02  0.140E-02
  -6.061  0.140E-02  0.140E-02
  -6.051  0.139E-02  0.139E-02
  -6.041  0.139E-02  0.139E-02
  -6.031  0.139E-02  0.139E-02
  -6.021  0.140E-02  0.140E-02
  -6.011  0.141E-02  0.141E-02
  -6.001  0.141E-02  0.141E-02
  -5.991  0.142E-02  0.142E-02
  -5.981  0.142E-02  0.142E-02
  -5.971  0.143E-02  0.143E-02
  -5.961  0.143E-02  0.143E-02
  -5.951  0.142E-02  0.142E-02
  -5.941  0.142E-02  0.142E-02
  -5.931  0.140E-02  0.140E-02
  -5.921  0.138E-02  0.138E-02
  -5.911  0.136E-02  0.136E-02
  -5.901  0.132E-02  0.132E-02
  -5.891  0.129E-02  0.129E-02
  -5.881  0.124E-02  0.124E-02
  -5.871  0.120E-02  0.120E-02
  -5.861  0.115E-02  0.115E-02
  -5.851  0.109E-02  0.109E-02
  -5.841  0.104E-02  0.104E-02
  -5.831  0.986E-03  0.986E-03
  -5.821  0.934E-03  0.934E-03
  -5.811  0.885E-03  0.885E-03
  -5.801  0.840E-03  0.840E-03
  -5.791  0.798E-03  0.798E-03
  -5.781  0.761E-03  0.761E-03
  -5.771  0.730E-03  0.730E-03
  -5.761  0.702E-03  0.702E-03
  -5.751  0.680E-03  0.680E-03
  -5.741  0.661E-03  0.661E-03
  -5.731  0.645E-03  0.645E-03
  -5.721  0.632E-03  0.632E-03
  -5.711  0.621E-03  0.621E-03
  -5.701  0.611E-03  0.611E-03
  -5.691  0.600E-03  0.600E-03
  -5.681  0.590E-03  0.590E-03
  -5.671  0.578E-03  0.578E-03
  -5.661  0.564E-03  0.564E-03
  -5.651  0.549E-03  0.549E-03
  -5.641  0.531E-03  0.531E-03
  -5.631  0.512E-03  0.512E-03
  -5.621  0.491E-03  0.491E-03
  -5.611  0.468E-03  0.468E-03
  -5.601  0.443E-03  0.443E-03
  -5.591  0.418E-03  0.418E-03
  -5.581  0.393E-03  0.393E-03
  -5.571  0.367E-03  0.367E-03
  -5.561  0.341E-03  0.341E-03
  -5.551  0.316E-03  0.316E-03
  -5.541  0.291E-03  0.291E-03
  -5.531  0.268E-03  0.268E-03
  -5.521  0.245E-03  0.245E-03
  -5.511  0.224E-03  0.224E-03
  -5.501  0.205E-03  0.205E-03
  -5.491  0.186E-03  0.186E-03
  -5.481  0.169E-03  0.169E-03
  -5.471  0.153E-03  0.153E-03
  -5.461  0.138E-03  0.138E-03
  -5.451  0.124E-03  0.124E-03
  -5.441  0.112E-03  0.112E-03
  -5.431  0.998E-04  0.998E-04
  -5.421  0.889E-04  0.889E-04
  -5.411  0.788E-04  0.788E-04
  -5.401  0.695E-04  0.695E-04
  -5.391  0.610E-04  0.610E-04
  -5.381  0.531E-04  0.531E-04
  -5.371  0.460E-04  0.460E-04
  -5.361  0.395E-04  0.395E-04
  -5.351  0.337E-04  0.337E-04
  -5.341  0.285E-04  0.285E-04
  -5.331  0.239E-04  0.239E-04
  -5.321  0.199E-04  0.199E-04
  -5.311  0.164E-04  0.164E-04
  -5.301  0.134E-04  0.134E-04
  -5.291  0.108E-04  0.108E-04
  -5.281  0.868E-05  0.868E-05
  -5.271  0.688E-05  0.688E-05
  -5.261  0.541E-05  0.541E-05
  -5.251  0.420E-05  0.420E-05
  -5.241  0.324E-05  0.324E-05
  -5.231  0.246E-05  0.246E-05
  -5.221  0.186E-05  0.186E-05
  -5.211  0.139E-05  0.139E-05
  -5.201  0.102E-05  0.102E-05
  -5.191  0.748E-06  0.748E-06
  -5.181  0.541E-06  0.541E-06
  -5.171  0.387E-06  0.387E-06
  -5.161  0.274E-06  0.274E-06
  -5.151  0.192E-06  0.192E-06
  -5.141  0.133E-06  0.133E-06
  -5.131  0.912E-07  0.912E-07
  -5.121  0.618E-07  0.618E-07
  -5.111  0.415E-07  0.415E-07
  -5.101  0.275E-07  0.275E-07
  -5.091  0.181E-07  0.181E-07
  -5.081  0.118E-07  0.118E-07
  -5.071  0.756E-08  0.756E-08
  -5.061  0.481E-08  0.481E-08
  -5.051  0.302E-08  0.302E-08
  -5.041  0.188E-08  0.188E-08
  -5.031  0.116E-08  0.116E-08
  -5.021  0.706E-09  0.706E-09
  -5.011  0.426E-09  0.426E-09
  -5.001  0.254E-09  0.254E-09
  -4.991  0.150E-09  0.150E-09
  -4.981  0.873E-10  0.873E-10
  -4.971  0.504E-10  0.504E-10
  -4.961  0.288E-10  0.288E-10
  -4.951  0.163E-10  0.163E-10
  -4.941  0.908E-11  0.908E-11
  -4.931  0.502E-11  0.502E-11
  -4.921  0.275E-11  0.275E-11
  -4.911  0.149E-11  0.149E-11
  -4.901  0.795E-12  0.795E-12
  -4.891  0.421E-12  0.421E-12
  -4.881  0.221E-12  0.221E-12
  -4.871  0.114E-12  0.114E-12
  -4.861  0.586E-13  0.586E-13
  -4.851  0.297E-13  0.297E-13
  -4.841  0.149E-13  0.149E-13
  -4.831  0.738E-14  0.738E-14
  -4.821  0.362E-14  0.362E-14
  -4.811  0.176E-14  0.176E-14
  -4.801  0.845E-15  0.845E-15
  -4.791  0.402E-15  0.402E-15
  -4.781  0.239E-18  0.239E-18
  -4.771  0.259E-18  0.259E-18
  -4.761  0.281E-18  0.281E-18
  -4.751  0.305E-18  0.305E-18
  -4.741  0.330E-18  0.330E-18
  -4.731  0.356E-18  0.356E-18
  -4.721  0.383E-18  0.383E-18
  -4.711  0.411E-18  0.411E-18
  -4.701  0.440E-18  0.440E-18
  -4.691  0.468E-18  0.468E-18
  -4.681  0.495E-18  0.495E-18
  -4.671  0.522E-18  0.522E-18
  -4.661  0.546E-18  0.546E-18
  -4.651  0.569E-18  0.569E-18
  -4.641  0.588E-18  0.588E-18
  -4.631  0.604E-18  0.604E-18
  -4.621  0.616E-18  0.616E-18
  -4.611  0.623E-18  0.623E-18
  -4.601  0.626E-18  0.626E-18
  -4.591  0.624E-18  0.624E-18
  -4.581  0.618E-18  0.618E-18
  -4.571  0.607E-18  0.607E-18
  -4.561  0.592E-18  0.592E-18
  -4.551  0.572E-18  0.572E-18
  -4.541  0.550E-18  0.550E-18
  -4.531  0.524E-18  0.524E-18
  -4.521  0.497E-18  0.497E-18
  -4.511  0.468E-18  0.468E-18
  -4.501  0.439E-18  0.439E-18
  -4.491  0.409E-18  0.409E-18
  -4.481  0.381E-18  0.381E-18
  -4.471  0.355E-18  0.355E-18
  -4.461  0.330E-18  0.330E-18
  -4.451  0.309E-18  0.309E-18
  -4.441  0.291E-18  0.291E-18
  -4.431  0.276E-18  0.276E-18
  -4.421  0.265E-18  0.265E-18
  -4.411  0.259E-18  0.259E-18
  -4.401  0.257E-18  0.257E-18
  -4.391  0.259E-18  0.259E-18
  -4.381  0.264E-18  0.264E-18
  -4.371  0.274E-18  0.274E-18
  -4.361  0.287E-18  0.287E-18
  -4.351  0.302E-18  0.302E-18
  -4.341  0.320E-18  0.320E-18
  -4.331  0.340E-18  0.340E-18
  -4.321  0.361E-18  0.361E-18
  -4.311  0.382E-18  0.382E-18
  -4.301  0.403E-18  0.403E-18
  -4.291  0.423E-18  0.423E-18
  -4.281  0.441E-18  0.441E-18
  -4.271  0.456E-18  0.456E-18
  -4.261  0.468E-18  0.468E-18
  -4.251  0.477E-18  0.477E-18
  -4.241  0.482E-18  0.482E-18
  -4.231  0.483E-18  0.483E-18
  -4.221  0.480E-18  0.480E-18
  -4.211  0.473E-18  0.473E-18
  -4.201  0.462E-18  0.462E-18
  -4.191  0.448E-18  0.448E-18
  -4.181  0.431E-18  0.431E-18
  -4.171  0.411E-18  0.411E-18
  -4.161  0.389E-18  0.389E-18
  -4.151  0.366E-18  0.366E-18
  -4.141  0.343E-18  0.343E-18
  -4.131  0.319E-18  0.319E-18
  -4.121  0.296E-18  0.296E-18
  -4.111  0.273E-18  0.273E-18
  -4.101  0.253E-18  0.253E-18
  -4.091  0.233E-18  0.233E-18
  -4.081  0.216E-18  0.216E-18
  -4.071  0.201E-18  0.201E-18
  -4.061  0.189E-18  0.189E-18
  -4.051  0.178E-18  0.178E-18
  -4.041  0.170E-18  0.170E-18
  -4.031  0.164E-18  0.164E-18
  -4.021  0.160E-18  0.160E-18
  -4.011  0.157E-18  0.157E-18
  -4.001  0.155E-18  0.155E-18
  -3.991  0.154E-18  0.154E-18
  -3.981  0.154E-18  0.154E-18
  -3.971  0.154E-18  0.154E-18
  -3.961  0.155E-18  0.155E-18
  -3.951  0.155E-18  0.155E-18
  -3.941  0.154E-18  0.154E-18
  -3.931  0.153E-18  0.153E-18
  -3.921  0.151E-18  0.151E-18
  -3.911  0.149E-18  0.149E-18
  -3.901  0.145E-18  0.145E-18
  -3.891  0.142E-18  0.142E-18
  -3.881  0.137E-18  0.137E-18
  -3.871  0.133E-18  0.133E-18
  -3.861  0.128E-18  0.128E-18
  -3.851  0.122E-18  0.122E-18
  -3.841  0.117E-18  0.117E-18
  -3.831  0.112E-18  0.112E-18
  -3.821  0.108E-18  0.108E-18
  -3.811  0.104E-18  0.104E-18
  -3.801  0.100E-18  0.100E-18
  -3.791  0.974E-19  0.974E-19
  -3.781  0.950E-19  0.950E-19
  -3.771  0.932E-19  0.932E-19
  -3.761  0.919E-19  0.919E-19
  -3.751  0.911E-19  0.911E-19
  -3.741  0.906E-19  0.906E-19
  -3.731  0.904E-19  0.904E-19
  -3.721  0.903E-19  0.903E-19
  -3.711  0.903E-19  0.903E-19
  -3.701  0.901E-19  0.901E-19
  -3.691  0.897E-19  0.897E-19
  -3.681  0.890E-19  0.890E-19
  -3.671  0.878E-19  0.878E-19
  -3.661  0.863E-19  0.863E-19
  -3.651  0.843E-19  0.843E-19
  -3.641  0.818E-19  0.818E-19
  -3.631  0.788E-19  0.788E-19
  -3.621  0.754E-19  0.754E-19
  -3.611  0.717E-19  0.717E-19
  -3.601  0.677E-19  0.677E-19
  -3.591  0.635E-19  0.635E-19
  -3.581  0.593E-19  0.593E-19
  -3.571  0.550E-19  0.550E-19
  -3.561  0.508E-19  0.508E-19
  -3.551  0.469E-19  0.469E-19
  -3.541  0.431E-19  0.431E-19
  -3.531  0.396E-19  0.396E-19
  -3.521  0.365E-19  0.365E-19
  -3.511  0.338E-19  0.338E-19
  -3.501  0.314E-19  0.314E-19
  -3.491  0.293E-19  0.293E-19
  -3.481  0.276E-19  0.276E-19
  -3.471  0.262E-19  0.262E-19
  -3.461  0.250E-19  0.250E-19
  -3.451  0.240E-19  0.240E-19
  -3.441  0.233E-19  0.233E-19
  -3.431  0.226E-19  0.226E-19
  -3.421  0.221E-19  0.221E-19
  -3.411  0.216E-19  0.216E-19
  -3.401  0.211E-19  0.211E-19
  -3.391  0.207E-19  0.207E-19
  -3.381  0.203E-19  0.203E-19
  -3.371  0.200E-19  0.200E-19
  -3.361  0.196E-19  0.196E-19
  -3.351  0.193E-19  0.193E-19
  -3.341  0.190E-19  0.190E-19
  -3.331  0.188E-19  0.188E-19
  -3.321  0.187E-19  0.187E-19
  -3.311  0.186E-19  0.186E-19
  -3.301  0.186E-19  0.186E-19
  -3.291  0.187E-19  0.187E-19
  -3.281  0.188E-19  0.188E-19
  -3.271  0.191E-19  0.191E-19
  -3.261  0.194E-19  0.194E-19
  -3.251  0.199E-19  0.199E-19
  -3.241  0.203E-19  0.203E-19
  -3.231  0.209E-19  0.209E-19
  -3.221  0.215E-19  0.215E-19
  -3.211  0.221E-19  0.221E-19
  -3.201  0.228E-19  0.228E-19
  -3.191  0.234E-19  0.234E-19
  -3.181  0.241E-19  0.241E-19
  -3.171  0.247E-19  0.247E-19
  -3.161  0.253E-19  0.253E-19
  -3.151  0.258E-19  0.258E-19
  -3.141  0.262E-19  0.262E-19
  -3.131  0.266E-19  0.266E-19
  -3.121  0.268E-19  0.268E-19
  -3.111  0.269E-19  0.269E-19
  -3.101  0.269E-19  0.269E-19
  -3.091  0.267E-19  0.267E-19
  -3.081  0.264E-19  0.264E-19
  -3.071  0.259E-19  0.259E-19
  -3.061  0.253E-19  0.253E-19
  -3.051  0.244E-19  0.244E-19
  -3.041  0.235E-19  0.235E-19
  -3.031  0.224E-19  0.224E-19
  -3.021  0.212E-19  0.212E-19
  -3.011  0.200E-19  0.200E-19
  -3.001  0.186E-19  0.186E-19
  -2.991  0.173E-19  0.173E-19
  -2.981  0.159E-19  0.159E-19
  -2.971  0.146E-19  0.146E-19
  -2.961  0.134E-19  0.134E-19
  -2.951  0.122E-19  0.122E-19
  -2.941  0.111E-19  0.111E-19
  -2.931  0.101E-19  0.101E-19
  -2.921  0.926E-20  0.926E-20
  -2.911  0.851E-20  0.851E-20
  -2.901  0.788E-20  0.788E-20
  -2.891  0.736E-20  0.736E-20
  -2.881  0.694E-20  0.694E-20
  -2.871  0.661E-20  0.661E-20
  -2.861  0.636E-20  0.636E-20
  -2.851  0.616E-20  0.616E-20
  -2.841  0.600E-20  0.600E-20
  -2.831  0.587E-20  0.587E-20
  -2.821  0.574E-20  0.574E-20
  -2.811  0.562E-20  0.562E-20
  -2.801  0.549E-20  0.549E-20
  -2.791  0.533E-20  0.533E-20
  -2.781  0.515E-20  0.515E-20
  -2.771  0.494E-20  0.494E-20
  -2.761  0.471E-20  0.471E-20
  -2.751  0.445E-20  0.445E-20
  -2.741  0.416E-20  0.416E-20
  -2.731  0.386E-20  0.386E-20
  -2.721  0.354E-20  0.354E-20
  -2.711  0.323E-20  0.323E-20
  -2.701  0.291E-20  0.291E-20
  -2.691  0.260E-20  0.260E-20
  -2.681  0.230E-20  0.230E-20
  -2.671  0.202E-20  0.202E-20
  -2.661  0.177E-20  0.177E-20
  -2.651  0.154E-20  0.154E-20
  -2.641  0.134E-20  0.134E-20
  -2.631  0.118E-20  0.118E-20
  -2.621  0.105E-20  0.105E-20
  -2.611  0.967E-21  0.967E-21
  -2.601  0.921E-21  0.921E-21
  -2.591  0.916E-21  0.916E-21
  -2.581  0.957E-21  0.957E-21
  -2.571  0.104E-20  0.104E-20
  -2.561  0.118E-20  0.118E-20
  -2.551  0.136E-20  0.136E-20
  -2.541  0.160E-20  0.160E-20
  -2.531  0.189E-20  0.189E-20
  -2.521  0.224E-20  0.224E-20
  -2.511  0.264E-20  0.264E-20
  -2.501  0.309E-20  0.309E-20
  -2.491  0.358E-20  0.358E-20
  -2.481  0.413E-20  0.413E-20
  -2.471  0.470E-20  0.470E-20
  -2.461  0.531E-20  0.531E-20
  -2.451  0.593E-20  0.593E-20
  -2.441  0.655E-20  0.655E-20
  -2.431  0.716E-20  0.716E-20
  -2.421  0.774E-20  0.774E-20
  -2.411  0.829E-20  0.829E-20
  -2.401  0.877E-20  0.877E-20
  -2.391  0.919E-20  0.919E-20
  -2.381  0.952E-20  0.952E-20
  -2.371  0.976E-20  0.976E-20
  -2.361  0.989E-20  0.989E-20
  -2.351  0.993E-20  0.993E-20
  -2.341  0.985E-20  0.985E-20
  -2.331  0.967E-20  0.967E-20
  -2.321  0.939E-20  0.939E-20
  -2.311  0.903E-20  0.903E-20
  -2.301  0.858E-20  0.858E-20
  -2.291  0.808E-20  0.808E-20
  -2.281  0.753E-20  0.753E-20
  -2.271  0.694E-20  0.694E-20
  -2.261  0.635E-20  0.635E-20
  -2.251  0.576E-20  0.576E-20
  -2.241  0.519E-20  0.519E-20
  -2.231  0.465E-20  0.465E-20
  -2.221  0.418E-20  0.418E-20
  -2.211  0.377E-20  0.377E-20
  -2.201  0.344E-20  0.344E-20
  -2.191  0.321E-20  0.321E-20
  -2.181  0.310E-20  0.310E-20
  -2.171  0.311E-20  0.311E-20
  -2.161  0.327E-20  0.327E-20
  -2.151  0.360E-20  0.360E-20
  -2.141  0.410E-20  0.410E-20
  -2.131  0.480E-20  0.480E-20
  -2.121  0.573E-20  0.573E-20
  -2.111  0.689E-20  0.689E-20
  -2.101  0.831E-20  0.831E-20
  -2.091  0.100E-19  0.100E-19
  -2.081  0.120E-19  0.120E-19
  -2.071  0.142E-19  0.142E-19
  -2.061  0.168E-19  0.168E-19
  -2.051  0.196E-19  0.196E-19
  -2.041  0.226E-19  0.226E-19
  -2.031  0.259E-19  0.259E-19
  -2.021  0.293E-19  0.293E-19
  -2.011  0.328E-19  0.328E-19
  -2.001  0.364E-19  0.364E-19
  -1.991  0.400E-19  0.400E-19
  -1.981  0.435E-19  0.435E-19
  -1.971  0.468E-19  0.468E-19
  -1.961  0.499E-19  0.499E-19
  -1.951  0.527E-19  0.527E-19
  -1.941  0.552E-19  0.552E-19
  -1.931  0.573E-19  0.573E-19
  -1.921  0.590E-19  0.590E-19
  -1.911  0.604E-19  0.604E-19
  -1.901  0.614E-19  0.614E-19
  -1.891  0.622E-19  0.622E-19
  -1.881  0.627E-19  0.627E-19
  -1.871  0.631E-19  0.631E-19
  -1.861  0.635E-19  0.635E-19
  -1.851  0.640E-19  0.640E-19
  -1.841  0.647E-19  0.647E-19
  -1.831  0.657E-19  0.657E-19
  -1.821  0.671E-19  0.671E-19
  -1.811  0.689E-19  0.689E-19
  -1.801  0.713E-19  0.713E-19
  -1.791  0.742E-19  0.742E-19
  -1.781  0.776E-19  0.776E-19
  -1.771  0.814E-19  0.814E-19
  -1.761  0.856E-19  0.856E-19
  -1.751  0.901E-19  0.901E-19
  -1.741  0.948E-19  0.948E-19
  -1.731  0.995E-19  0.995E-19
  -1.721  0.104E-18  0.104E-18
  -1.711  0.108E-18  0.108E-18
  -1.701  0.112E-18  0.112E-18
  -1.691  0.116E-18  0.116E-18
  -1.681  0.118E-18  0.118E-18
  -1.671  0.121E-18  0.121E-18
  -1.661  0.122E-18  0.122E-18
  -1.651  0.122E-18  0.122E-18
  -1.641  0.122E-18  0.122E-18
  -1.631  0.121E-18  0.121E-18
  -1.621  0.120E-18  0.120E-18
  -1.611  0.118E-18  0.118E-18
  -1.601  0.115E-18  0.115E-18
  -1.591  0.113E-18  0.113E-18
  -1.581  0.109E-18  0.109E-18
  -1.571  0.106E-18  0.106E-18
  -1.561  0.103E-18  0.103E-18
  -1.551  0.991E-19  0.991E-19
  -1.541  0.957E-19  0.957E-19
  -1.531  0.925E-19  0.925E-19
  -1.521  0.893E-19  0.893E-19
  -1.511  0.864E-19  0.864E-19
  -1.501  0.838E-19  0.838E-19
  -1.491  0.815E-19  0.815E-19
  -1.481  0.794E-19  0.794E-19
  -1.471  0.777E-19  0.777E-19
  -1.461  0.764E-19  0.764E-19
  -1.451  0.755E-19  0.755E-19
  -1.441  0.750E-19  0.750E-19
  -1.431  0.750E-19  0.750E-19
  -1.421  0.755E-19  0.755E-19
  -1.411  0.765E-19  0.765E-19
  -1.401  0.781E-19  0.781E-19
  -1.391  0.804E-19  0.804E-19
  -1.381  0.832E-19  0.832E-19
  -1.371  0.868E-19  0.868E-19
  -1.361  0.911E-19  0.911E-19
  -1.351  0.962E-19  0.962E-19
  -1.341  0.102E-18  0.102E-18
  -1.331  0.109E-18  0.109E-18
  -1.321  0.116E-18  0.116E-18
  -1.311  0.124E-18  0.124E-18
  -1.301  0.133E-18  0.133E-18
  -1.291  0.143E-18  0.143E-18
  -1.281  0.153E-18  0.153E-18
  -1.271  0.164E-18  0.164E-18
  -1.261  0.176E-18  0.176E-18
  -1.251  0.188E-18  0.188E-18
  -1.241  0.200E-18  0.200E-18
  -1.231  0.213E-18  0.213E-18
  -1.221  0.227E-18  0.227E-18
  -1.211  0.241E-18  0.241E-18
  -1.201  0.257E-18  0.257E-18
  -1.191  0.273E-18  0.273E-18
  -1.181  0.290E-18  0.290E-18
  -1.171  0.309E-18  0.309E-18
  -1.161  0.330E-18  0.330E-18
  -1.151  0.353E-18  0.353E-18
  -1.141  0.378E-18  0.378E-18
  -1.131  0.405E-18  0.405E-18
  -1.121  0.434E-18  0.434E-18
  -1.111  0.465E-18  0.465E-18
  -1.101  0.498E-18  0.498E-18
  -1.091  0.533E-18  0.533E-18
  -1.081  0.568E-18  0.568E-18
  -1.071  0.603E-18  0.603E-18
  -1.061  0.638E-18  0.638E-18
  -1.051  0.671E-18  0.671E-18
  -1.041  0.703E-18  0.703E-18
  -1.031  0.731E-18  0.731E-18
  -1.021  0.756E-18  0.756E-18
  -1.011  0.777E-18  0.777E-18
  -1.001  0.794E-18  0.794E-18
  -0.991  0.807E-18  0.807E-18
  -0.981  0.816E-18  0.816E-18
  -0.971  0.823E-18  0.823E-18
  -0.961  0.827E-18  0.827E-18
  -0.951  0.832E-18  0.832E-18
  -0.941  0.838E-18  0.838E-18
  -0.931  0.848E-18  0.848E-18
  -0.921  0.864E-18  0.864E-18
  -0.911  0.888E-18  0.888E-18
  -0.901  0.922E-18  0.922E-18
  -0.891  0.970E-18  0.970E-18
  -0.881  0.103E-17  0.103E-17
  -0.871  0.111E-17  0.111E-17
  -0.861  0.121E-17  0.121E-17
  -0.851  0.133E-17  0.133E-17
  -0.841  0.147E-17  0.147E-17
  -0.831  0.163E-17  0.163E-17
  -0.821  0.181E-17  0.181E-17
  -0.811  0.201E-17  0.201E-17
  -0.801  0.223E-17  0.223E-17
  -0.791  0.246E-17  0.246E-17
  -0.781  0.271E-17  0.271E-17
  -0.771  0.296E-17  0.296E-17
  -0.761  0.323E-17  0.323E-17
  -0.751  0.349E-17  0.349E-17
  -0.741  0.374E-17  0.374E-17
  -0.731  0.399E-17  0.399E-17
  -0.721  0.423E-17  0.423E-17
  -0.711  0.444E-17  0.444E-17
  -0.701  0.464E-17  0.464E-17
  -0.691  0.481E-17  0.481E-17
  -0.681  0.495E-17  0.495E-17
  -0.671  0.505E-17  0.505E-17
  -0.661  0.513E-17  0.513E-17
  -0.651  0.517E-17  0.517E-17
  -0.641  0.517E-17  0.517E-17
  -0.631  0.515E-17  0.515E-17
  -0.621  0.509E-17  0.509E-17
  -0.611  0.500E-17  0.500E-17
  -0.601  0.489E-17  0.489E-17
  -0.591  0.475E-17  0.475E-17
  -0.581  0.460E-17  0.460E-17
  -0.571  0.443E-17  0.443E-17
  -0.561  0.426E-17  0.426E-17
  -0.551  0.408E-17  0.408E-17
  -0.541  0.390E-17  0.390E-17
  -0.531  0.373E-17  0.373E-17
  -0.521  0.356E-17  0.356E-17
  -0.511  0.341E-17  0.341E-17
  -0.501  0.326E-17  0.326E-17
  -0.491  0.313E-17  0.313E-17
  -0.481  0.301E-17  0.301E-17
  -0.471  0.291E-17  0.291E-17
  -0.461  0.281E-17  0.281E-17
  -0.451  0.273E-17  0.273E-17
  -0.441  0.265E-17  0.265E-17
  -0.431  0.258E-17  0.258E-17
  -0.421  0.251E-17  0.251E-17
  -0.411  0.245E-17  0.245E-17
  -0.401  0.239E-17  0.239E-17
  -0.391  0.233E-17  0.233E-17
  -0.381  0.227E-17  0.227E-17
  -0.371  0.221E-17  0.221E-17
  -0.361  0.214E-17  0.214E-17
  -0.351  0.208E-17  0.208E-17
  -0.341  0.201E-17  0.201E-17
  -0.331  0.195E-17  0.195E-17
  -0.321  0.189E-17  0.189E-17
  -0.311  0.183E-17  0.183E-17
  -0.301  0.177E-17  0.177E-17
  -0.291  0.171E-17  0.171E-17
  -0.281  0.166E-17  0.166E-17
  -0.271  0.161E-17  0.161E-17
  -0.261  0.156E-17  0.156E-17
  -0.251  0.152E-17  0.152E-17
  -0.241  0.148E-17  0.148E-17
  -0.231  0.144E-17  0.144E-17
  -0.221  0.140E-17  0.140E-17
  -0.211  0.137E-17  0.137E-17
  -0.201  0.133E-17  0.133E-17
  -0.191  0.130E-17  0.130E-17
  -0.181  0.128E-17  0.128E-17
  -0.171  0.126E-17  0.126E-17
  -0.161  0.124E-17  0.124E-17
  -0.151  0.123E-17  0.123E-17
  -0.141  0.123E-17  0.123E-17
  -0.131  0.124E-17  0.124E-17
  -0.121  0.125E-17  0.125E-17
  -0.111  0.128E-17  0.128E-17
  -0.101  0.132E-17  0.132E-17
  -0.091  0.137E-17  0.137E-17
  -0.081  0.144E-17  0.144E-17
  -0.071  0.151E-17  0.151E-17
  -0.061  0.160E-17  0.160E-17
  -0.051  0.170E-17  0.170E-17
  -0.041  0.181E-17  0.181E-17
  -0.031  0.192E-17  0.192E-17
  -0.021  0.205E-17  0.205E-17
  -0.011  0.217E-17  0.217E-17
  -0.001  0.230E-17  0.230E-17
   0.009  0.242E-17  0.242E-17
   0.019  0.254E-17  0.254E-17
   0.029  0.265E-17  0.265E-17
   0.039  0.275E-17  0.275E-17
   0.049  0.284E-17  0.284E-17
   0.059  0.291E-17  0.291E-17
   0.069  0.297E-17  0.297E-17
   0.079  0.302E-17  0.302E-17
   0.089  0.306E-17  0.306E-17
   0.099  0.309E-17  0.309E-17
   0.109  0.312E-17  0.312E-17
   0.119  0.314E-17  0.314E-17
   0.129  0.317E-17  0.317E-17
   0.139  0.321E-17  0.321E-17
   0.149  0.327E-17  0.327E-17
   0.159  0.148E-15  0.148E-15
   0.169  0.306E-15  0.306E-15
   0.179  0.118E-14  0.118E-14
   0.189  0.245E-14  0.245E-14
   0.199  0.502E-14  0.502E-14
   0.209  0.102E-13  0.102E-13
   0.219  0.205E-13  0.205E-13
   0.229  0.412E-13  0.412E-13
   0.239  0.812E-13  0.812E-13
   0.249  0.158E-12  0.158E-12
   0.259  0.306E-12  0.306E-12
   0.269  0.583E-12  0.583E-12
   0.279  0.110E-11  0.110E-11
   0.289  0.206E-11  0.206E-11
   0.299  0.381E-11  0.381E-11
   0.309  0.697E-11  0.697E-11
   0.319  0.126E-10  0.126E-10
   0.329  0.226E-10  0.226E-10
   0.339  0.401E-10  0.401E-10
   0.349  0.703E-10  0.703E-10
   0.359  0.122E-09  0.122E-09
   0.369  0.210E-09  0.210E-09
   0.379  0.356E-09  0.356E-09
   0.389  0.599E-09  0.599E-09
   0.399  0.998E-09  0.998E-09
   0.409  0.164E-08  0.164E-08
   0.419  0.268E-08  0.268E-08
   0.429  0.432E-08  0.432E-08
   0.439  0.690E-08  0.690E-08
   0.449  0.109E-07  0.109E-07
   0.459  0.171E-07  0.171E-07
   0.469  0.264E-07  0.264E-07
   0.479  0.405E-07  0.405E-07
   0.489  0.613E-07  0.613E-07
   0.499  0.920E-07  0.920E-07
   0.509  0.137E-06  0.137E-06
   0.519  0.201E-06  0.201E-06
   0.529  0.292E-06  0.292E-06
   0.539  0.421E-06  0.421E-06
   0.549  0.600E-06  0.600E-06
   0.559  0.847E-06  0.847E-06
   0.569  0.118E-05  0.118E-05
   0.579  0.164E-05  0.164E-05
   0.589  0.224E-05  0.224E-05
   0.599  0.303E-05  0.303E-05
   0.609  0.407E-05  0.407E-05
   0.619  0.541E-05  0.541E-05
   0.629  0.711E-05  0.711E-05
   0.639  0.926E-05  0.926E-05
   0.649  0.119E-04  0.119E-04
   0.659  0.152E-04  0.152E-04
   0.669  0.193E-04  0.193E-04
   0.679  0.241E-04  0.241E-04
   0.689  0.299E-04  0.299E-04
   0.699  0.367E-04  0.367E-04
   0.709  0.447E-04  0.447E-04
   0.719  0.539E-04  0.539E-04
   0.729  0.643E-04  0.643E-04
   0.739  0.761E-04  0.761E-04
   0.749  0.892E-04  0.892E-04
   0.759  0.104E-03  0.104E-03
   0.769  0.119E-03  0.119E-03
   0.779  0.136E-03  0.136E-03
   0.789  0.154E-03  0.154E-03
   0.799  0.172E-03  0.172E-03
   0.809  0.192E-03  0.192E-03
   0.819  0.211E-03  0.211E-03
   0.829  0.231E-03  0.231E-03
   0.839  0.251E-03  0.251E-03
   0.849  0.270E-03  0.270E-03
   0.859  0.288E-03  0.288E-03
   0.869  0.305E-03  0.305E-03
   0.879  0.321E-03  0.321E-03
   0.889  0.335E-03  0.335E-03
   0.899  0.348E-03  0.348E-03
   0.909  0.359E-03  0.359E-03
   0.919  0.368E-03  0.368E-03
   0.929  0.374E-03  0.374E-03
   0.939  0.379E-03  0.379E-03
   0.949  0.382E-03  0.382E-03
   0.959  0.382E-03  0.382E-03
   0.969  0.381E-03  0.381E-03
   0.979  0.378E-03  0.378E-03
   0.989  0.374E-03  0.374E-03
   0.999  0.368E-03  0.368E-03
   1.009  0.361E-03  0.361E-03
   1.019  0.353E-03  0.353E-03
   1.029  0.344E-03  0.344E-03
   1.039  0.335E-03  0.335E-03
   1.049  0.325E-03  0.325E-03
   1.059  0.315E-03  0.315E-03
   1.069  0.304E-03  0.304E-03
   1.079  0.293E-03  0.293E-03
   1.089  0.283E-03  0.283E-03
   1.099  0.272E-03  0.272E-03
   1.109  0.261E-03  0.261E-03
   1.119  0.251E-03  0.251E-03
   1.129  0.241E-03  0.241E-03
   1.139  0.231E-03  0.231E-03
   1.149  0.221E-03  0.221E-03
   1.159  0.212E-03  0.212E-03
   1.169  0.203E-03  0.203E-03
   1.179  0.194E-03  0.194E-03
   1.189  0.185E-03  0.185E-03
   1.199  0.176E-03  0.176E-03
   1.209  0.168E-03  0.168E-03
   1.219  0.161E-03  0.161E-03
   1.229  0.153E-03  0.153E-03
   1.239  0.146E-03  0.146E-03
   1.249  0.139E-03  0.139E-03
   1.259  0.132E-03  0.132E-03
   1.269  0.126E-03  0.126E-03
   1.279  0.120E-03  0.120E-03
   1.289  0.114E-03  0.114E-03
   1.299  0.109E-03  0.109E-03
   1.309  0.103E-03  0.103E-03
   1.319  0.984E-04  0.984E-04
   1.329  0.935E-04  0.935E-04
   1.339  0.889E-04  0.889E-04
   1.349  0.844E-04  0.844E-04
   1.359  0.800E-04  0.800E-04
   1.369  0.758E-04  0.758E-04
   1.379  0.717E-04  0.717E-04
   1.389  0.677E-04  0.677E-04
   1.399  0.640E-04  0.640E-04
   1.409  0.603E-04  0.603E-04
   1.419  0.569E-04  0.569E-04
   1.429  0.537E-04  0.537E-04
   1.439  0.507E-04  0.507E-04
   1.449  0.480E-04  0.480E-04
   1.459  0.456E-04  0.456E-04
   1.469  0.435E-04  0.435E-04
   1.479  0.416E-04  0.416E-04
   1.489  0.401E-04  0.401E-04
   1.499  0.389E-04  0.389E-04
   1.509  0.381E-04  0.381E-04
   1.519  0.376E-04  0.376E-04
   1.529  0.374E-04  0.374E-04
   1.539  0.375E-04  0.375E-04
   1.549  0.379E-04  0.379E-04
   1.559  0.385E-04  0.385E-04
   1.569  0.394E-04  0.394E-04
   1.579  0.406E-04  0.406E-04
   1.589  0.419E-04  0.419E-04
   1.599  0.434E-04  0.434E-04
   1.609  0.451E-04  0.451E-04
   1.619  0.468E-04  0.468E-04
   1.629  0.486E-04  0.486E-04
   1.639  0.504E-04  0.504E-04
   1.649  0.522E-04  0.522E-04
   1.659  0.540E-04  0.540E-04
   1.669  0.556E-04  0.556E-04
   1.679  0.571E-04  0.571E-04
   1.689  0.585E-04  0.585E-04
   1.699  0.596E-04  0.596E-04
   1.709  0.606E-04  0.606E-04
   1.719  0.613E-04  0.613E-04
   1.729  0.619E-04  0.619E-04
   1.739  0.621E-04  0.621E-04
   1.749  0.622E-04  0.622E-04
   1.759  0.620E-04  0.620E-04
   1.769  0.616E-04  0.616E-04
   1.779  0.611E-04  0.611E-04
   1.789  0.603E-04  0.603E-04
   1.799  0.594E-04  0.594E-04
   1.809  0.584E-04  0.584E-04
   1.819  0.573E-04  0.573E-04
   1.829  0.561E-04  0.561E-04
   1.839  0.548E-04  0.548E-04
   1.849  0.535E-04  0.535E-04
   1.859  0.521E-04  0.521E-04
   1.869  0.508E-04  0.508E-04
   1.879  0.495E-04  0.495E-04
   1.889  0.481E-04  0.481E-04
   1.899  0.469E-04  0.469E-04
   1.909  0.457E-04  0.457E-04
   1.919  0.445E-04  0.445E-04
   1.929  0.433E-04  0.433E-04
   1.939  0.423E-04  0.423E-04
   1.949  0.412E-04  0.412E-04
   1.959  0.403E-04  0.403E-04
   1.969  0.393E-04  0.393E-04
   1.979  0.385E-04  0.385E-04
   1.989  0.376E-04  0.376E-04
   1.999  0.368E-04  0.368E-04
   2.009  0.360E-04  0.360E-04
   2.019  0.353E-04  0.353E-04
   2.029  0.346E-04  0.346E-04
   2.039  0.339E-04  0.339E-04
   2.049  0.333E-04  0.333E-04
   2.059  0.326E-04  0.326E-04
   2.069  0.320E-04  0.320E-04
   2.079  0.314E-04  0.314E-04
   2.089  0.308E-04  0.308E-04
   2.099  0.303E-04  0.303E-04
   2.109  0.297E-04  0.297E-04
   2.119  0.291E-04  0.291E-04
   2.129  0.286E-04  0.286E-04
   2.139  0.281E-04  0.281E-04
   2.149  0.276E-04  0.276E-04
   2.159  0.271E-04  0.271E-04
   2.169  0.267E-04  0.267E-04
   2.179  0.263E-04  0.263E-04
   2.189  0.260E-04  0.260E-04
   2.199  0.257E-04  0.257E-04
   2.209  0.255E-04  0.255E-04
   2.219  0.254E-04  0.254E-04
   2.229  0.253E-04  0.253E-04
   2.239  0.254E-04  0.254E-04
   2.249  0.255E-04  0.255E-04
   2.259  0.257E-04  0.257E-04
   2.269  0.260E-04  0.260E-04
   2.279  0.264E-04  0.264E-04
   2.289  0.268E-04  0.268E-04
   2.299  0.273E-04  0.273E-04
   2.309  0.278E-04  0.278E-04
   2.319  0.283E-04  0.283E-04
   2.329  0.289E-04  0.289E-04
   2.339  0.293E-04  0.293E-04
   2.349  0.298E-04  0.298E-04
   2.359  0.302E-04  0.302E-04
   2.369  0.305E-04  0.305E-04
   2.379  0.307E-04  0.307E-04
   2.389  0.308E-04  0.308E-04
   2.399  0.308E-04  0.308E-04
   2.409  0.307E-04  0.307E-04
   2.419  0.305E-04  0.305E-04
   2.429  0.302E-04  0.302E-04
   2.439  0.298E-04  0.298E-04
   2.449  0.293E-04  0.293E-04
   2.459  0.288E-04  0.288E-04
   2.469  0.282E-04  0.282E-04
   2.479  0.276E-04  0.276E-04
   2.489  0.270E-04  0.270E-04
   2.499  0.265E-04  0.265E-04
   2.509  0.260E-04  0.260E-04
   2.519  0.256E-04  0.256E-04
   2.529  0.253E-04  0.253E-04
   2.539  0.251E-04  0.251E-04
   2.549  0.250E-04  0.250E-04
   2.559  0.251E-04  0.251E-04
   2.569  0.253E-04  0.253E-04
   2.579  0.256E-04  0.256E-04
   2.589  0.261E-04  0.261E-04
   2.599  0.267E-04  0.267E-04
   2.609  0.275E-04  0.275E-04
   2.619  0.284E-04  0.284E-04
   2.629  0.293E-04  0.293E-04
   2.639  0.303E-04  0.303E-04
   2.649  0.313E-04  0.313E-04
   2.659  0.323E-04  0.323E-04
   2.669  0.333E-04  0.333E-04
   2.679  0.343E-04  0.343E-04
   2.689  0.352E-04  0.352E-04
   2.699  0.360E-04  0.360E-04
   2.709  0.366E-04  0.366E-04
   2.719  0.372E-04  0.372E-04
   2.729  0.376E-04  0.376E-04
   2.739  0.379E-04  0.379E-04
   2.749  0.380E-04  0.380E-04
   2.759  0.380E-04  0.380E-04
   2.769  0.378E-04  0.378E-04
   2.779  0.375E-04  0.375E-04
   2.789  0.371E-04  0.371E-04
   2.799  0.366E-04  0.366E-04
   2.809  0.360E-04  0.360E-04
   2.819  0.353E-04  0.353E-04
   2.829  0.346E-04  0.346E-04
   2.839  0.338E-04  0.338E-04
   2.849  0.330E-04  0.330E-04
   2.859  0.322E-04  0.322E-04
   2.869  0.314E-04  0.314E-04
   2.879  0.306E-04  0.306E-04
   2.889  0.298E-04  0.298E-04
   2.899  0.291E-04  0.291E-04
   2.909  0.285E-04  0.285E-04
   2.919  0.280E-04  0.280E-04
   2.929  0.277E-04  0.277E-04
   2.939  0.274E-04  0.274E-04
   2.949  0.273E-04  0.273E-04
   2.959  0.274E-04  0.274E-04
   2.969  0.277E-04  0.277E-04
   2.979  0.281E-04  0.281E-04
   2.989  0.287E-04  0.287E-04
   2.999  0.295E-04  0.295E-04
   3.009  0.304E-04  0.304E-04
   3.019  0.315E-04  0.315E-04
   3.029  0.326E-04  0.326E-04
   3.039  0.339E-04  0.339E-04
   3.049  0.352E-04  0.352E-04
   3.059  0.364E-04  0.364E-04
   3.069  0.377E-04  0.377E-04
   3.079  0.388E-04  0.388E-04
   3.089  0.398E-04  0.398E-04
   3.099  0.407E-04  0.407E-04
   3.109  0.414E-04  0.414E-04
   3.119  0.419E-04  0.419E-04
   3.129  0.422E-04  0.422E-04
   3.139  0.423E-04  0.423E-04
   3.149  0.422E-04  0.422E-04
   3.159  0.419E-04  0.419E-04
   3.169  0.415E-04  0.415E-04
   3.179  0.409E-04  0.409E-04
   3.189  0.402E-04  0.402E-04
   3.199  0.394E-04  0.394E-04
   3.209  0.386E-04  0.386E-04
   3.219  0.377E-04  0.377E-04
   3.229  0.368E-04  0.368E-04
   3.239  0.359E-04  0.359E-04
   3.249  0.351E-04  0.351E-04
   3.259  0.343E-04  0.343E-04
   3.269  0.336E-04  0.336E-04
   3.279  0.329E-04  0.329E-04
   3.289  0.323E-04  0.323E-04
   3.299  0.318E-04  0.318E-04
   3.309  0.313E-04  0.313E-04
   3.319  0.309E-04  0.309E-04
   3.329  0.305E-04  0.305E-04
   3.339  0.302E-04  0.302E-04
   3.349  0.300E-04  0.300E-04
   3.359  0.299E-04  0.299E-04
   3.369  0.299E-04  0.299E-04
   3.379  0.299E-04  0.299E-04
   3.389  0.300E-04  0.300E-04
   3.399  0.303E-04  0.303E-04
   3.409  0.307E-04  0.307E-04
   3.419  0.312E-04  0.312E-04
   3.429  0.318E-04  0.318E-04
   3.439  0.325E-04  0.325E-04
   3.449  0.334E-04  0.334E-04
   3.459  0.344E-04  0.344E-04
   3.469  0.356E-04  0.356E-04
   3.479  0.368E-04  0.368E-04
   3.489  0.381E-04  0.381E-04
   3.499  0.394E-04  0.394E-04
   3.509  0.407E-04  0.407E-04
   3.519  0.420E-04  0.420E-04
   3.529  0.432E-04  0.432E-04
   3.539  0.443E-04  0.443E-04
   3.549  0.452E-04  0.452E-04
   3.559  0.460E-04  0.460E-04
   3.569  0.466E-04  0.466E-04
   3.579  0.470E-04  0.470E-04
   3.589  0.472E-04  0.472E-04
   3.599  0.472E-04  0.472E-04
   3.609  0.469E-04  0.469E-04
   3.619  0.465E-04  0.465E-04
   3.629  0.460E-04  0.460E-04
   3.639  0.454E-04  0.454E-04
   3.649  0.446E-04  0.446E-04
   3.659  0.439E-04  0.439E-04
   3.669  0.432E-04  0.432E-04
   3.679  0.425E-04  0.425E-04
   3.689  0.419E-04  0.419E-04
   3.699  0.415E-04  0.415E-04
   3.709  0.412E-04  0.412E-04
   3.719  0.411E-04  0.411E-04
   3.729  0.412E-04  0.412E-04
   3.739  0.415E-04  0.415E-04
   3.749  0.420E-04  0.420E-04
   3.759  0.426E-04  0.426E-04
   3.769  0.435E-04  0.435E-04
   3.779  0.445E-04  0.445E-04
   3.789  0.455E-04  0.455E-04
   3.799  0.467E-04  0.467E-04
   3.809  0.479E-04  0.479E-04
   3.819  0.491E-04  0.491E-04
   3.829  0.503E-04  0.503E-04
   3.839  0.515E-04  0.515E-04
   3.849  0.526E-04  0.526E-04
   3.859  0.536E-04  0.536E-04
   3.869  0.544E-04  0.544E-04
   3.879  0.552E-04  0.552E-04
   3.889  0.559E-04  0.559E-04
   3.899  0.565E-04  0.565E-04
   3.909  0.570E-04  0.570E-04
   3.919  0.575E-04  0.575E-04
   3.929  0.580E-04  0.580E-04
   3.939  0.586E-04  0.586E-04
   3.949  0.594E-04  0.594E-04
   3.959  0.603E-04  0.603E-04
   3.969  0.614E-04  0.614E-04
   3.979  0.628E-04  0.628E-04
   3.989  0.645E-04  0.645E-04
   3.999  0.665E-04  0.665E-04
   4.009  0.688E-04  0.688E-04
   4.019  0.715E-04  0.715E-04
   4.029  0.745E-04  0.745E-04
   4.039  0.777E-04  0.777E-04
   4.049  0.810E-04  0.810E-04
   4.059  0.845E-04  0.845E-04
   4.069  0.880E-04  0.880E-04
   4.079  0.914E-04  0.914E-04
   4.089  0.946E-04  0.946E-04
   4.099  0.975E-04  0.975E-04
   4.109  0.100E-03  0.100E-03
   4.119  0.102E-03  0.102E-03
   4.129  0.104E-03  0.104E-03
   4.139  0.105E-03  0.105E-03
   4.149  0.106E-03  0.106E-03
   4.159  0.107E-03  0.107E-03
   4.169  0.107E-03  0.107E-03
   4.179  0.107E-03  0.107E-03
   4.189  0.107E-03  0.107E-03
   4.199  0.106E-03  0.106E-03
   4.209  0.106E-03  0.106E-03
   4.219  0.106E-03  0.106E-03
   4.229  0.107E-03  0.107E-03
   4.239  0.108E-03  0.108E-03
   4.249  0.110E-03  0.110E-03
   4.259  0.113E-03  0.113E-03
   4.269  0.117E-03  0.117E-03
   4.279  0.121E-03  0.121E-03
   4.289  0.126E-03  0.126E-03
   4.299  0.133E-03  0.133E-03
   4.309  0.140E-03  0.140E-03
   4.319  0.148E-03  0.148E-03
   4.329  0.156E-03  0.156E-03
   4.339  0.165E-03  0.165E-03
   4.349  0.174E-03  0.174E-03
   4.359  0.183E-03  0.183E-03
   4.369  0.192E-03  0.192E-03
   4.379  0.200E-03  0.200E-03
   4.389  0.208E-03  0.208E-03
   4.399  0.215E-03  0.215E-03
   4.409  0.221E-03  0.221E-03
   4.419  0.226E-03  0.226E-03
   4.429  0.230E-03  0.230E-03
   4.439  0.233E-03  0.233E-03
   4.449  0.235E-03  0.235E-03
   4.459  0.236E-03  0.236E-03
   4.469  0.236E-03  0.236E-03
   4.479  0.236E-03  0.236E-03
   4.489  0.236E-03  0.236E-03
   4.499  0.237E-03  0.237E-03
   4.509  0.238E-03  0.238E-03
   4.519  0.241E-03  0.241E-03
   4.529  0.246E-03  0.246E-03
   4.539  0.252E-03  0.252E-03
   4.549  0.261E-03  0.261E-03
   4.559  0.273E-03  0.273E-03
   4.569  0.288E-03  0.288E-03
   4.579  0.306E-03  0.306E-03
   4.589  0.328E-03  0.328E-03
   4.599  0.352E-03  0.352E-03
   4.609  0.378E-03  0.378E-03
   4.619  0.407E-03  0.407E-03
   4.629  0.438E-03  0.438E-03
   4.639  0.471E-03  0.471E-03
   4.649  0.504E-03  0.504E-03
   4.659  0.539E-03  0.539E-03
   4.669  0.576E-03  0.576E-03
   4.679  0.614E-03  0.614E-03
   4.689  0.655E-03  0.655E-03
   4.699  0.701E-03  0.701E-03
   4.709  0.754E-03  0.754E-03
   4.719  0.819E-03  0.819E-03
   4.729  0.900E-03  0.900E-03
   4.739  0.100E-02  0.100E-02
   4.749  0.114E-02  0.114E-02
   4.759  0.131E-02  0.131E-02
   4.769  0.155E-02  0.155E-02
   4.779  0.185E-02  0.185E-02
   4.789  0.223E-02  0.223E-02
   4.799  0.273E-02  0.273E-02
   4.809  0.336E-02  0.336E-02
   4.819  0.414E-02  0.414E-02
   4.829  0.511E-02  0.511E-02
   4.839  0.631E-02  0.631E-02
   4.849  0.775E-02  0.775E-02
   4.859  0.949E-02  0.949E-02
   4.869  0.115E-01  0.115E-01
   4.879  0.140E-01  0.140E-01
   4.889  0.168E-01  0.168E-01
   4.899  0.200E-01  0.200E-01
   4.909  0.237E-01  0.237E-01
   4.919  0.279E-01  0.279E-01
   4.929  0.325E-01  0.325E-01
   4.939  0.377E-01  0.377E-01
   4.949  0.433E-01  0.433E-01
   4.959  0.494E-01  0.494E-01
   4.969  0.560E-01  0.560E-01
   4.979  0.629E-01  0.629E-01
   4.989  0.702E-01  0.702E-01
   4.999  0.778E-01  0.778E-01
   5.009  0.855E-01  0.855E-01
   5.019  0.933E-01  0.933E-01
   5.029  0.101E+00  0.101E+00
   5.039  0.109E+00  0.109E+00
   5.049  0.116E+00  0.116E+00
   5.059  0.123E+00  0.123E+00
   5.069  0.130E+00  0.130E+00
   5.079  0.136E+00  0.136E+00
   5.089  0.141E+00  0.141E+00
   5.099  0.146E+00  0.146E+00
   5.109  0.150E+00  0.150E+00
   5.119  0.153E+00  0.153E+00
   5.129  0.155E+00  0.155E+00
   5.139  0.156E+00  0.156E+00
   5.149  0.157E+00  0.157E+00
   5.159  0.157E+00  0.157E+00
   5.169  0.156E+00  0.156E+00
   5.179  0.155E+00  0.155E+00
   5.189  0.153E+00  0.153E+00
   5.199  0.151E+00  0.151E+00
   5.209  0.149E+00  0.149E+00
   5.219  0.147E+00  0.147E+00
   5.229  0.145E+00  0.145E+00
   5.239  0.144E+00  0.144E+00
   5.249  0.142E+00  0.142E+00
   5.259  0.141E+00  0.141E+00
   5.269  0.141E+00  0.141E+00
   5.279  0.141E+00  0.141E+00
   5.289  0.141E+00  0.141E+00
   5.299  0.142E+00  0.142E+00
   5.309  0.143E+00  0.143E+00
   5.319  0.144E+00  0.144E+00
   5.329  0.145E+00  0.145E+00
   5.339  0.146E+00  0.146E+00
   5.349  0.147E+00  0.147E+00
   5.359  0.148E+00  0.148E+00
   5.369  0.148E+00  0.148E+00
   5.379  0.148E+00  0.148E+00
   5.389  0.147E+00  0.147E+00
   5.399  0.145E+00  0.145E+00
   5.409  0.143E+00  0.143E+00
   5.419  0.140E+00  0.140E+00
   5.429  0.136E+00  0.136E+00
   5.439  0.131E+00  0.131E+00
   5.449  0.126E+00  0.126E+00
   5.459  0.121E+00  0.121E+00
   5.469  0.115E+00  0.115E+00
   5.479  0.109E+00  0.109E+00
   5.489  0.103E+00  0.103E+00
   5.499  0.975E-01  0.975E-01
   5.509  0.918E-01  0.918E-01
   5.519  0.863E-01  0.863E-01
   5.529  0.812E-01  0.812E-01
   5.539  0.766E-01  0.766E-01
   5.549  0.725E-01  0.725E-01
   5.559  0.691E-01  0.691E-01
   5.569  0.663E-01  0.663E-01
   5.579  0.642E-01  0.642E-01
   5.589  0.628E-01  0.628E-01
   5.599  0.621E-01  0.621E-01
   5.609  0.620E-01  0.620E-01
   5.619  0.626E-01  0.626E-01
   5.629  0.639E-01  0.639E-01
   5.639  0.657E-01  0.657E-01
   5.649  0.680E-01  0.680E-01
   5.659  0.707E-01  0.707E-01
   5.669  0.738E-01  0.738E-01
   5.679  0.771E-01  0.771E-01
   5.689  0.806E-01  0.806E-01
   5.699  0.841E-01  0.841E-01
   5.709  0.875E-01  0.875E-01
   5.719  0.908E-01  0.908E-01
   5.729  0.937E-01  0.937E-01
   5.739  0.963E-01  0.963E-01
   5.749  0.984E-01  0.984E-01
   5.759  0.999E-01  0.999E-01
   5.769  0.101E+00  0.101E+00
   5.779  0.101E+00  0.101E+00
   5.789  0.101E+00  0.101E+00
   5.799  0.996E-01  0.996E-01
   5.809  0.979E-01  0.979E-01
   5.819  0.957E-01  0.957E-01
   5.829  0.929E-01  0.929E-01
   5.839  0.896E-01  0.896E-01
   5.849  0.860E-01  0.860E-01
   5.859  0.821E-01  0.821E-01
   5.869  0.780E-01  0.780E-01
   5.879  0.738E-01  0.738E-01
   5.889  0.695E-01  0.695E-01
   5.899  0.652E-01  0.652E-01
   5.909  0.609E-01  0.609E-01
   5.919  0.568E-01  0.568E-01
   5.929  0.528E-01  0.528E-01
   5.939  0.490E-01  0.490E-01
   5.949  0.453E-01  0.453E-01
   5.959  0.418E-01  0.418E-01
   5.969  0.385E-01  0.385E-01
   5.979  0.355E-01  0.355E-01
   5.989  0.326E-01  0.326E-01
   5.999  0.300E-01  0.300E-01
   6.009  0.277E-01  0.277E-01
   6.019  0.256E-01  0.256E-01
   6.029  0.239E-01  0.239E-01
   6.039  0.224E-01  0.224E-01
   6.049  0.214E-01  0.214E-01
   6.059  0.207E-01  0.207E-01
   6.069  0.204E-01  0.204E-01
   6.079  0.206E-01  0.206E-01
   6.089  0.213E-01  0.213E-01
   6.099  0.224E-01  0.224E-01
   6.109  0.241E-01  0.241E-01
   6.119  0.263E-01  0.263E-01
   6.129  0.290E-01  0.290E-01
   6.139  0.321E-01  0.321E-01
   6.149  0.357E-01  0.357E-01
   6.159  0.397E-01  0.397E-01
   6.169  0.441E-01  0.441E-01
   6.179  0.486E-01  0.486E-01
   6.189  0.533E-01  0.533E-01
   6.199  0.581E-01  0.581E-01
   6.209  0.628E-01  0.628E-01
   6.219  0.674E-01  0.674E-01
   6.229  0.716E-01  0.716E-01
   6.239  0.755E-01  0.755E-01
   6.249  0.790E-01  0.790E-01
   6.259  0.818E-01  0.818E-01
   6.269  0.841E-01  0.841E-01
   6.279  0.857E-01  0.857E-01
   6.289  0.866E-01  0.866E-01
   6.299  0.868E-01  0.868E-01
   6.309  0.863E-01  0.863E-01
   6.319  0.852E-01  0.852E-01
   6.329  0.835E-01  0.835E-01
   6.339  0.812E-01  0.812E-01
   6.349  0.784E-01  0.784E-01
   6.359  0.753E-01  0.753E-01
   6.369  0.718E-01  0.718E-01
   6.379  0.681E-01  0.681E-01
   6.389  0.642E-01  0.642E-01
   6.399  0.602E-01  0.602E-01
   6.409  0.562E-01  0.562E-01
   6.419  0.522E-01  0.522E-01
   6.429  0.482E-01  0.482E-01
   6.439  0.443E-01  0.443E-01
   6.449  0.405E-01  0.405E-01
   6.459  0.369E-01  0.369E-01
   6.469  0.334E-01  0.334E-01
   6.479  0.301E-01  0.301E-01
   6.489  0.270E-01  0.270E-01
   6.499  0.241E-01  0.241E-01
   6.509  0.214E-01  0.214E-01
   6.519  0.189E-01  0.189E-01
   6.529  0.166E-01  0.166E-01
   6.539  0.146E-01  0.146E-01
   6.549  0.127E-01  0.127E-01
   6.559  0.111E-01  0.111E-01
   6.569  0.965E-02  0.965E-02
   6.579  0.844E-02  0.844E-02
   6.589  0.746E-02  0.746E-02
   6.599  0.668E-02  0.668E-02
   6.609  0.612E-02  0.612E-02
   6.619  0.578E-02  0.578E-02
   6.629  0.565E-02  0.565E-02
   6.639  0.575E-02  0.575E-02
   6.649  0.608E-02  0.608E-02
   6.659  0.665E-02  0.665E-02
   6.669  0.748E-02  0.748E-02
   6.679  0.857E-02  0.857E-02
   6.689  0.994E-02  0.994E-02
   6.699  0.116E-01  0.116E-01
   6.709  0.136E-01  0.136E-01
   6.719  0.159E-01  0.159E-01
   6.729  0.185E-01  0.185E-01
   6.739  0.215E-01  0.215E-01
   6.749  0.248E-01  0.248E-01
   6.759  0.284E-01  0.284E-01
   6.769  0.322E-01  0.322E-01
   6.779  0.362E-01  0.362E-01
   6.789  0.405E-01  0.405E-01
   6.799  0.448E-01  0.448E-01
   6.809  0.491E-01  0.491E-01
   6.819  0.534E-01  0.534E-01
   6.829  0.575E-01  0.575E-01
   6.839  0.615E-01  0.615E-01
   6.849  0.650E-01  0.650E-01
   6.859  0.682E-01  0.682E-01
   6.869  0.709E-01  0.709E-01
   6.879  0.731E-01  0.731E-01
   6.889  0.746E-01  0.746E-01
   6.899  0.756E-01  0.756E-01
   6.909  0.759E-01  0.759E-01
   6.919  0.756E-01  0.756E-01
   6.929  0.747E-01  0.747E-01
   6.939  0.732E-01  0.732E-01
   6.949  0.712E-01  0.712E-01
   6.959  0.687E-01  0.687E-01
   6.969  0.658E-01  0.658E-01
   6.979  0.625E-01  0.625E-01
   6.989  0.590E-01  0.590E-01
   6.999  0.553E-01  0.553E-01
   7.009  0.515E-01  0.515E-01
   7.019  0.476E-01  0.476E-01
   7.029  0.437E-01  0.437E-01
   7.039  0.399E-01  0.399E-01
   7.049  0.362E-01  0.362E-01
   7.059  0.326E-01  0.326E-01
   7.069  0.292E-01  0.292E-01
   7.079  0.260E-01  0.260E-01
   7.089  0.230E-01  0.230E-01
   7.099  0.203E-01  0.203E-01
   7.109  0.178E-01  0.178E-01
   7.119  0.155E-01  0.155E-01
   7.129  0.135E-01  0.135E-01
   7.139  0.117E-01  0.117E-01
   7.149  0.101E-01  0.101E-01
   7.159  0.873E-02  0.873E-02
   7.169  0.756E-02  0.756E-02
   7.179  0.657E-02  0.657E-02
   7.189  0.574E-02  0.574E-02
   7.199  0.504E-02  0.504E-02
   7.209  0.447E-02  0.447E-02
   7.219  0.401E-02  0.401E-02
   7.229  0.364E-02  0.364E-02
   7.239  0.335E-02  0.335E-02
   7.249  0.313E-02  0.313E-02
   7.259  0.297E-02  0.297E-02
   7.269  0.287E-02  0.287E-02
   7.279  0.283E-02  0.283E-02
   7.289  0.285E-02  0.285E-02
   7.299  0.294E-02  0.294E-02
   7.309  0.311E-02  0.311E-02
   7.319  0.338E-02  0.338E-02
   7.329  0.376E-02  0.376E-02
   7.339  0.428E-02  0.428E-02
   7.349  0.495E-02  0.495E-02
   7.359  0.580E-02  0.580E-02
   7.369  0.686E-02  0.686E-02
   7.379  0.814E-02  0.814E-02
   7.389  0.967E-02  0.967E-02
   7.399  0.115E-01  0.115E-01
   7.409  0.135E-01  0.135E-01
   7.419  0.159E-01  0.159E-01
   7.429  0.186E-01  0.186E-01
   7.439  0.215E-01  0.215E-01
   7.449  0.246E-01  0.246E-01
   7.459  0.280E-01  0.280E-01
   7.469  0.316E-01  0.316E-01
   7.479  0.353E-01  0.353E-01
   7.489  0.390E-01  0.390E-01
   7.499  0.428E-01  0.428E-01
   7.509  0.465E-01  0.465E-01
   7.519  0.500E-01  0.500E-01
   7.529  0.532E-01  0.532E-01
   7.539  0.562E-01  0.562E-01
   7.549  0.587E-01  0.587E-01
   7.559  0.609E-01  0.609E-01
   7.569  0.625E-01  0.625E-01
   7.579  0.636E-01  0.636E-01
   7.589  0.641E-01  0.641E-01
   7.599  0.641E-01  0.641E-01
   7.609  0.636E-01  0.636E-01
   7.619  0.625E-01  0.625E-01
   7.629  0.609E-01  0.609E-01
   7.639  0.589E-01  0.589E-01
   7.649  0.565E-01  0.565E-01
   7.659  0.538E-01  0.538E-01
   7.669  0.508E-01  0.508E-01
   7.679  0.476E-01  0.476E-01
   7.689  0.443E-01  0.443E-01
   7.699  0.410E-01  0.410E-01
   7.709  0.376E-01  0.376E-01
   7.719  0.343E-01  0.343E-01
   7.729  0.311E-01  0.311E-01
   7.739  0.280E-01  0.280E-01
   7.749  0.251E-01  0.251E-01
   7.759  0.224E-01  0.224E-01
   7.769  0.199E-01  0.199E-01
   7.779  0.176E-01  0.176E-01
   7.789  0.156E-01  0.156E-01
   7.799  0.137E-01  0.137E-01
   7.809  0.120E-01  0.120E-01
   7.819  0.105E-01  0.105E-01
   7.829  0.924E-02  0.924E-02
   7.839  0.809E-02  0.809E-02
   7.849  0.709E-02  0.709E-02
   7.859  0.621E-02  0.621E-02
   7.869  0.545E-02  0.545E-02
   7.879  0.479E-02  0.479E-02
   7.889  0.421E-02  0.421E-02
   7.899  0.371E-02  0.371E-02
   7.909  0.328E-02  0.328E-02
   7.919  0.290E-02  0.290E-02
   7.929  0.257E-02  0.257E-02
   7.939  0.229E-02  0.229E-02
   7.949  0.206E-02  0.206E-02
   7.959  0.186E-02  0.186E-02
   7.969  0.171E-02  0.171E-02
   7.979  0.159E-02  0.159E-02
   7.989  0.152E-02  0.152E-02
   7.999  0.150E-02  0.150E-02
   8.009  0.153E-02  0.153E-02
   8.019  0.162E-02  0.162E-02
   8.029  0.178E-02  0.178E-02
   8.039  0.202E-02  0.202E-02
   8.049  0.234E-02  0.234E-02
   8.059  0.277E-02  0.277E-02
   8.069  0.331E-02  0.331E-02
   8.079  0.399E-02  0.399E-02
   8.089  0.480E-02  0.480E-02
   8.099  0.578E-02  0.578E-02
   8.109  0.693E-02  0.693E-02
   8.119  0.827E-02  0.827E-02
   8.129  0.980E-02  0.980E-02
   8.139  0.115E-01  0.115E-01
   8.149  0.134E-01  0.134E-01
   8.159  0.156E-01  0.156E-01
   8.169  0.179E-01  0.179E-01
   8.179  0.203E-01  0.203E-01
   8.189  0.229E-01  0.229E-01
   8.199  0.256E-01  0.256E-01
   8.209  0.284E-01  0.284E-01
   8.219  0.312E-01  0.312E-01
   8.229  0.340E-01  0.340E-01
   8.239  0.367E-01  0.367E-01
   8.249  0.393E-01  0.393E-01
   8.259  0.417E-01  0.417E-01
   8.269  0.439E-01  0.439E-01
   8.279  0.458E-01  0.458E-01
   8.289  0.474E-01  0.474E-01
   8.299  0.487E-01  0.487E-01
   8.309  0.496E-01  0.496E-01
   8.319  0.502E-01  0.502E-01
   8.329  0.504E-01  0.504E-01
   8.339  0.502E-01  0.502E-01
   8.349  0.497E-01  0.497E-01
   8.359  0.488E-01  0.488E-01
   8.369  0.476E-01  0.476E-01
   8.379  0.461E-01  0.461E-01
   8.389  0.443E-01  0.443E-01
   8.399  0.423E-01  0.423E-01
   8.409  0.402E-01  0.402E-01
   8.419  0.379E-01  0.379E-01
   8.429  0.355E-01  0.355E-01
   8.439  0.330E-01  0.330E-01
   8.449  0.306E-01  0.306E-01
   8.459  0.281E-01  0.281E-01
   8.469  0.257E-01  0.257E-01
   8.479  0.233E-01  0.233E-01
   8.489  0.210E-01  0.210E-01
   8.499  0.189E-01  0.189E-01
   8.509  0.168E-01  0.168E-01
   8.519  0.149E-01  0.149E-01
   8.529  0.131E-01  0.131E-01
   8.539  0.115E-01  0.115E-01
   8.549  0.999E-02  0.999E-02
   8.559  0.865E-02  0.865E-02
   8.569  0.744E-02  0.744E-02
   8.579  0.638E-02  0.638E-02
   8.589  0.544E-02  0.544E-02
   8.599  0.462E-02  0.462E-02
   8.609  0.392E-02  0.392E-02
   8.619  0.332E-02  0.332E-02
   8.629  0.282E-02  0.282E-02
   8.639  0.240E-02  0.240E-02
   8.649  0.207E-02  0.207E-02
   8.659  0.181E-02  0.181E-02
   8.669  0.161E-02  0.161E-02
   8.679  0.148E-02  0.148E-02
   8.689  0.140E-02  0.140E-02
   8.699  0.137E-02  0.137E-02
   8.709  0.139E-02  0.139E-02
   8.719  0.146E-02  0.146E-02
   8.729  0.159E-02  0.159E-02
   8.739  0.176E-02  0.176E-02
   8.749  0.198E-02  0.198E-02
   8.759  0.225E-02  0.225E-02
   8.769  0.259E-02  0.259E-02
   8.779  0.298E-02  0.298E-02
   8.789  0.343E-02  0.343E-02
   8.799  0.395E-02  0.395E-02
   8.809  0.454E-02  0.454E-02
   8.819  0.521E-02  0.521E-02
   8.829  0.594E-02  0.594E-02
   8.839  0.676E-02  0.676E-02
   8.849  0.765E-02  0.765E-02
   8.859  0.861E-02  0.861E-02
   8.869  0.966E-02  0.966E-02
   8.879  0.108E-01  0.108E-01
   8.889  0.120E-01  0.120E-01
   8.899  0.132E-01  0.132E-01
   8.909  0.145E-01  0.145E-01
   8.919  0.159E-01  0.159E-01
   8.929  0.173E-01  0.173E-01
   8.939  0.188E-01  0.188E-01
   8.949  0.203E-01  0.203E-01
   8.959  0.219E-01  0.219E-01
   8.969  0.235E-01  0.235E-01
   8.979  0.251E-01  0.251E-01
   8.989  0.267E-01  0.267E-01
   8.999  0.283E-01  0.283E-01
   9.009  0.299E-01  0.299E-01
   9.019  0.314E-01  0.314E-01
   9.029  0.328E-01  0.328E-01
   9.039  0.342E-01  0.342E-01
   9.049  0.354E-01  0.354E-01
   9.059  0.364E-01  0.364E-01
   9.069  0.373E-01  0.373E-01
   9.079  0.379E-01  0.379E-01
   9.089  0.384E-01  0.384E-01
   9.099  0.385E-01  0.385E-01
   9.109  0.384E-01  0.384E-01
   9.119  0.380E-01  0.380E-01
   9.129  0.374E-01  0.374E-01
   9.139  0.365E-01  0.365E-01
   9.149  0.353E-01  0.353E-01
   9.159  0.338E-01  0.338E-01
   9.169  0.322E-01  0.322E-01
   9.179  0.304E-01  0.304E-01
   9.189  0.284E-01  0.284E-01
   9.199  0.263E-01  0.263E-01
   9.209  0.242E-01  0.242E-01
   9.219  0.221E-01  0.221E-01
   9.229  0.199E-01  0.199E-01
   9.239  0.178E-01  0.178E-01
   9.249  0.158E-01  0.158E-01
   9.259  0.139E-01  0.139E-01
   9.269  0.122E-01  0.122E-01
   9.279  0.105E-01  0.105E-01
   9.289  0.903E-02  0.903E-02
   9.299  0.770E-02  0.770E-02
   9.309  0.653E-02  0.653E-02
   9.319  0.550E-02  0.550E-02
   9.329  0.463E-02  0.463E-02
   9.339  0.390E-02  0.390E-02
   9.349  0.330E-02  0.330E-02
   9.359  0.283E-02  0.283E-02
   9.369  0.247E-02  0.247E-02
   9.379  0.222E-02  0.222E-02
   9.389  0.206E-02  0.206E-02
   9.399  0.200E-02  0.200E-02
   9.409  0.203E-02  0.203E-02
   9.419  0.213E-02  0.213E-02
   9.429  0.231E-02  0.231E-02
   9.439  0.256E-02  0.256E-02
   9.449  0.287E-02  0.287E-02
   9.459  0.325E-02  0.325E-02
   9.469  0.368E-02  0.368E-02
   9.479  0.415E-02  0.415E-02
   9.489  0.467E-02  0.467E-02
   9.499  0.521E-02  0.521E-02
   9.509  0.578E-02  0.578E-02
   9.519  0.637E-02  0.637E-02
   9.529  0.696E-02  0.696E-02
   9.539  0.755E-02  0.755E-02
   9.549  0.813E-02  0.813E-02
   9.559  0.869E-02  0.869E-02
   9.569  0.924E-02  0.924E-02
   9.579  0.976E-02  0.976E-02
   9.589  0.103E-01  0.103E-01
   9.599  0.108E-01  0.108E-01
   9.609  0.113E-01  0.113E-01
   9.619  0.118E-01  0.118E-01
   9.629  0.123E-01  0.123E-01
   9.639  0.129E-01  0.129E-01
   9.649  0.135E-01  0.135E-01
   9.659  0.142E-01  0.142E-01
   9.669  0.150E-01  0.150E-01
   9.679  0.158E-01  0.158E-01
   9.689  0.168E-01  0.168E-01
   9.699  0.178E-01  0.178E-01
   9.709  0.190E-01  0.190E-01
   9.719  0.202E-01  0.202E-01
   9.729  0.215E-01  0.215E-01
   9.739  0.228E-01  0.228E-01
   9.749  0.241E-01  0.241E-01
   9.759  0.254E-01  0.254E-01
   9.769  0.266E-01  0.266E-01
   9.779  0.276E-01  0.276E-01
   9.789  0.285E-01  0.285E-01
   9.799  0.292E-01  0.292E-01
   9.809  0.296E-01  0.296E-01
   9.819  0.298E-01  0.298E-01
   9.829  0.297E-01  0.297E-01
   9.839  0.293E-01  0.293E-01
   9.849  0.287E-01  0.287E-01
   9.859  0.278E-01  0.278E-01
   9.869  0.267E-01  0.267E-01
   9.879  0.253E-01  0.253E-01
   9.889  0.238E-01  0.238E-01
   9.899  0.222E-01  0.222E-01
   9.909  0.205E-01  0.205E-01
   9.919  0.188E-01  0.188E-01
   9.929  0.170E-01  0.170E-01
   9.939  0.153E-01  0.153E-01
   9.949  0.137E-01  0.137E-01
   9.959  0.122E-01  0.122E-01
   9.969  0.109E-01  0.109E-01
   9.979  0.972E-02  0.972E-02
   9.989  0.871E-02  0.871E-02
   9.999  0.788E-02  0.788E-02
  10.009  0.723E-02  0.723E-02
  10.019  0.675E-02  0.675E-02
  10.029  0.646E-02  0.646E-02
  10.039  0.632E-02  0.632E-02
  10.049  0.633E-02  0.633E-02
  10.059  0.647E-02  0.647E-02
  10.069  0.673E-02  0.673E-02
  10.079  0.708E-02  0.708E-02
  10.089  0.752E-02  0.752E-02
  10.099  0.801E-02  0.801E-02
  10.109  0.854E-02  0.854E-02
  10.119  0.909E-02  0.909E-02
  10.129  0.965E-02  0.965E-02
  10.139  0.102E-01  0.102E-01
  10.149  0.107E-01  0.107E-01
  10.159  0.112E-01  0.112E-01
  10.169  0.117E-01  0.117E-01
  10.179  0.121E-01  0.121E-01
  10.189  0.125E-01  0.125E-01
  10.199  0.129E-01  0.129E-01
  10.209  0.132E-01  0.132E-01
  10.219  0.135E-01  0.135E-01
  10.229  0.138E-01  0.138E-01
  10.239  0.141E-01  0.141E-01
  10.249  0.144E-01  0.144E-01
  10.259  0.147E-01  0.147E-01
  10.269  0.150E-01  0.150E-01
  10.279  0.153E-01  0.153E-01
  10.289  0.157E-01  0.157E-01
  10.299  0.161E-01  0.161E-01
  10.309  0.165E-01  0.165E-01
  10.319  0.169E-01  0.169E-01
  10.329  0.173E-01  0.173E-01
  10.339  0.177E-01  0.177E-01
  10.349  0.181E-01  0.181E-01
  10.359  0.185E-01  0.185E-01
  10.369  0.188E-01  0.188E-01
  10.379  0.190E-01  0.190E-01
  10.389  0.193E-01  0.193E-01
  10.399  0.195E-01  0.195E-01
  10.409  0.196E-01  0.196E-01
  10.419  0.197E-01  0.197E-01
  10.429  0.198E-01  0.198E-01
  10.439  0.198E-01  0.198E-01
  10.449  0.198E-01  0.198E-01
  10.459  0.198E-01  0.198E-01
  10.469  0.198E-01  0.198E-01
  10.479  0.198E-01  0.198E-01
  10.489  0.198E-01  0.198E-01
  10.499  0.198E-01  0.198E-01
  10.509  0.198E-01  0.198E-01
  10.519  0.198E-01  0.198E-01
  10.529  0.198E-01  0.198E-01
  10.539  0.197E-01  0.197E-01
  10.549  0.196E-01  0.196E-01
  10.559  0.195E-01  0.195E-01
  10.569  0.193E-01  0.193E-01
  10.579  0.190E-01  0.190E-01
  10.589  0.186E-01  0.186E-01
  10.599  0.182E-01  0.182E-01
  10.609  0.177E-01  0.177E-01
  10.619  0.171E-01  0.171E-01
  10.629  0.164E-01  0.164E-01
  10.639  0.156E-01  0.156E-01
  10.649  0.148E-01  0.148E-01
  10.659  0.139E-01  0.139E-01
  10.669  0.130E-01  0.130E-01
  10.679  0.120E-01  0.120E-01
  10.689  0.111E-01  0.111E-01
  10.699  0.101E-01  0.101E-01
  10.709  0.913E-02  0.913E-02
  10.719  0.820E-02  0.820E-02
  10.729  0.730E-02  0.730E-02
  10.739  0.644E-02  0.644E-02
  10.749  0.564E-02  0.564E-02
  10.759  0.489E-02  0.489E-02
  10.769  0.421E-02  0.421E-02
  10.779  0.359E-02  0.359E-02
  10.789  0.303E-02  0.303E-02
  10.799  0.254E-02  0.254E-02
  10.809  0.210E-02  0.210E-02
  10.819  0.173E-02  0.173E-02
  10.829  0.141E-02  0.141E-02
  10.839  0.114E-02  0.114E-02
  10.849  0.907E-03  0.907E-03
  10.859  0.717E-03  0.717E-03
  10.869  0.562E-03  0.562E-03
  10.879  0.436E-03  0.436E-03
  10.889  0.335E-03  0.335E-03
  10.899  0.255E-03  0.255E-03
  10.909  0.192E-03  0.192E-03
  10.919  0.143E-03  0.143E-03
  10.929  0.105E-03  0.105E-03
  10.939  0.770E-04  0.770E-04
  10.949  0.556E-04  0.556E-04
  10.959  0.398E-04  0.398E-04
  10.969  0.282E-04  0.282E-04
  10.979  0.198E-04  0.198E-04
  10.989  0.137E-04  0.137E-04
  10.999  0.940E-05  0.940E-05
  11.009  0.639E-05  0.639E-05
  11.019  0.429E-05  0.429E-05
  11.029  0.285E-05  0.285E-05
  11.039  0.188E-05  0.188E-05
  11.049  0.122E-05  0.122E-05
  11.059  0.788E-06  0.788E-06
