# E (eV)   ldos(E)   pdos(E)    pdos(E)    pdos(E)   
 -21.645  0.134E-07  0.261E-18  0.672E-08  0.672E-08
 -21.635  0.217E-07  0.415E-18  0.108E-07  0.108E-07
 -21.625  0.347E-07  0.652E-18  0.173E-07  0.173E-07
 -21.615  0.548E-07  0.101E-17  0.274E-07  0.274E-07
 -21.605  0.859E-07  0.156E-17  0.429E-07  0.429E-07
 -21.595  0.133E-06  0.238E-17  0.666E-07  0.666E-07
 -21.585  0.204E-06  0.358E-17  0.102E-06  0.102E-06
 -21.575  0.311E-06  0.535E-17  0.155E-06  0.155E-06
 -21.565  0.468E-06  0.789E-17  0.234E-06  0.234E-06
 -21.555  0.698E-06  0.115E-16  0.349E-06  0.349E-06
 -21.545  0.103E-05  0.167E-16  0.516E-06  0.516E-06
 -21.535  0.151E-05  0.238E-16  0.754E-06  0.754E-06
 -21.525  0.219E-05  0.337E-16  0.109E-05  0.109E-05
 -21.515  0.314E-05  0.473E-16  0.157E-05  0.157E-05
 -21.505  0.446E-05  0.656E-16  0.223E-05  0.223E-05
 -21.495  0.628E-05  0.900E-16  0.314E-05  0.314E-05
 -21.485  0.876E-05  0.122E-15  0.438E-05  0.438E-05
 -21.475  0.121E-04  0.164E-15  0.606E-05  0.606E-05
 -21.465  0.166E-04  0.219E-15  0.829E-05  0.829E-05
 -21.455  0.225E-04  0.288E-15  0.113E-04  0.113E-04
 -21.445  0.303E-04  0.375E-15  0.151E-04  0.151E-04
 -21.435  0.403E-04  0.484E-15  0.202E-04  0.202E-04
 -21.425  0.532E-04  0.618E-15  0.266E-04  0.266E-04
 -21.415  0.697E-04  0.782E-15  0.348E-04  0.348E-04
 -21.405  0.904E-04  0.978E-15  0.452E-04  0.452E-04
 -21.395  0.116E-03  0.121E-14  0.582E-04  0.582E-04
 -21.385  0.148E-03  0.149E-14  0.742E-04  0.742E-04
 -21.375  0.188E-03  0.180E-14  0.938E-04  0.938E-04
 -21.365  0.235E-03  0.217E-14  0.118E-03  0.118E-03
 -21.355  0.292E-03  0.258E-14  0.146E-03  0.146E-03
 -21.345  0.361E-03  0.304E-14  0.180E-03  0.180E-03
 -21.335  0.441E-03  0.355E-14  0.221E-03  0.221E-03
 -21.325  0.536E-03  0.410E-14  0.268E-03  0.268E-03
 -21.315  0.646E-03  0.469E-14  0.323E-03  0.323E-03
 -21.305  0.772E-03  0.532E-14  0.386E-03  0.386E-03
 -21.295  0.916E-03  0.597E-14  0.458E-03  0.458E-03
 -21.285  0.108E-02  0.665E-14  0.539E-03  0.539E-03
 -21.275  0.126E-02  0.733E-14  0.631E-03  0.631E-03
 -21.265  0.147E-02  0.801E-14  0.733E-03  0.733E-03
 -21.255  0.169E-02  0.867E-14  0.845E-03  0.845E-03
 -21.245  0.194E-02  0.931E-14  0.968E-03  0.968E-03
 -21.235  0.221E-02  0.992E-14  0.110E-02  0.110E-02
 -21.225  0.250E-02  0.105E-13  0.125E-02  0.125E-02
 -21.215  0.281E-02  0.110E-13  0.140E-02  0.140E-02
 -21.205  0.314E-02  0.114E-13  0.157E-02  0.157E-02
 -21.195  0.349E-02  0.118E-13  0.174E-02  0.174E-02
 -21.185  0.386E-02  0.121E-13  0.193E-02  0.193E-02
 -21.175  0.425E-02  0.123E-13  0.212E-02  0.212E-02
 -21.165  0.465E-02  0.125E-13  0.232E-02  0.232E-02
 -21.155  0.506E-02  0.125E-13  0.253E-02  0.253E-02
 -21.145  0.549E-02  0.126E-13  0.275E-02  0.275E-02
 -21.135  0.593E-02  0.125E-13  0.297E-02  0.297E-02
 -21.125  0.638E-02  0.124E-13  0.319E-02  0.319E-02
 -21.115  0.684E-02  0.123E-13  0.342E-02  0.342E-02
 -21.105  0.730E-02  0.121E-13  0.365E-02  0.365E-02
 -21.095  0.777E-02  0.119E-13  0.388E-02  0.388E-02
 -21.085  0.823E-02  0.116E-13  0.412E-02  0.412E-02
 -21.075  0.871E-02  0.114E-13  0.435E-02  0.435E-02
 -21.065  0.918E-02  0.111E-13  0.459E-02  0.459E-02
 -21.055  0.965E-02  0.109E-13  0.482E-02  0.482E-02
 -21.045  0.101E-01  0.106E-13  0.506E-02  0.506E-02
 -21.035  0.106E-01  0.104E-13  0.529E-02  0.529E-02
 -21.025  0.111E-01  0.103E-13  0.553E-02  0.553E-02
 -21.015  0.115E-01  0.102E-13  0.576E-02  0.576E-02
 -21.005  0.120E-01  0.102E-13  0.599E-02  0.599E-02
 -20.995  0.124E-01  0.104E-13  0.622E-02  0.622E-02
 -20.985  0.129E-01  0.107E-13  0.644E-02  0.644E-02
 -20.975  0.133E-01  0.113E-13  0.667E-02  0.667E-02
 -20.965  0.138E-01  0.121E-13  0.689E-02  0.689E-02
 -20.955  0.142E-01  0.132E-13  0.711E-02  0.711E-02
 -20.945  0.147E-01  0.146E-13  0.733E-02  0.733E-02
 -20.935  0.151E-01  0.164E-13  0.754E-02  0.754E-02
 -20.925  0.155E-01  0.187E-13  0.776E-02  0.776E-02
 -20.915  0.159E-01  0.215E-13  0.797E-02  0.797E-02
 -20.905  0.164E-01  0.248E-13  0.818E-02  0.818E-02
 -20.895  0.168E-01  0.287E-13  0.838E-02  0.838E-02
 -20.885  0.172E-01  0.332E-13  0.859E-02  0.859E-02
 -20.875  0.176E-01  0.383E-13  0.880E-02  0.880E-02
 -20.865  0.180E-01  0.439E-13  0.900E-02  0.900E-02
 -20.855  0.184E-01  0.500E-13  0.920E-02  0.920E-02
 -20.845  0.188E-01  0.567E-13  0.940E-02  0.940E-02
 -20.835  0.192E-01  0.636E-13  0.959E-02  0.959E-02
 -20.825  0.196E-01  0.708E-13  0.979E-02  0.979E-02
 -20.815  0.200E-01  0.781E-13  0.998E-02  0.998E-02
 -20.805  0.203E-01  0.854E-13  0.102E-01  0.102E-01
 -20.795  0.207E-01  0.924E-13  0.104E-01  0.104E-01
 -20.785  0.211E-01  0.991E-13  0.105E-01  0.105E-01
 -20.775  0.214E-01  0.105E-12  0.107E-01  0.107E-01
 -20.765  0.218E-01  0.110E-12  0.109E-01  0.109E-01
 -20.755  0.221E-01  0.115E-12  0.111E-01  0.111E-01
 -20.745  0.225E-01  0.118E-12  0.112E-01  0.112E-01
 -20.735  0.229E-01  0.120E-12  0.114E-01  0.114E-01
 -20.725  0.232E-01  0.121E-12  0.116E-01  0.116E-01
 -20.715  0.236E-01  0.121E-12  0.118E-01  0.118E-01
 -20.705  0.239E-01  0.119E-12  0.120E-01  0.120E-01
 -20.695  0.243E-01  0.117E-12  0.121E-01  0.121E-01
 -20.685  0.246E-01  0.113E-12  0.123E-01  0.123E-01
 -20.675  0.250E-01  0.108E-12  0.125E-01  0.125E-01
 -20.665  0.253E-01  0.102E-12  0.127E-01  0.127E-01
 -20.655  0.257E-01  0.957E-13  0.128E-01  0.128E-01
 -20.645  0.260E-01  0.888E-13  0.130E-01  0.130E-01
 -20.635  0.264E-01  0.815E-13  0.132E-01  0.132E-01
 -20.625  0.267E-01  0.742E-13  0.133E-01  0.133E-01
 -20.615  0.270E-01  0.668E-13  0.135E-01  0.135E-01
 -20.605  0.273E-01  0.596E-13  0.136E-01  0.136E-01
 -20.595  0.276E-01  0.527E-13  0.138E-01  0.138E-01
 -20.585  0.278E-01  0.461E-13  0.139E-01  0.139E-01
 -20.575  0.281E-01  0.401E-13  0.141E-01  0.141E-01
 -20.565  0.284E-01  0.346E-13  0.142E-01  0.142E-01
 -20.555  0.287E-01  0.296E-13  0.143E-01  0.143E-01
 -20.545  0.289E-01  0.252E-13  0.145E-01  0.145E-01
 -20.535  0.292E-01  0.214E-13  0.146E-01  0.146E-01
 -20.525  0.296E-01  0.181E-13  0.148E-01  0.148E-01
 -20.515  0.299E-01  0.153E-13  0.149E-01  0.149E-01
 -20.505  0.302E-01  0.130E-13  0.151E-01  0.151E-01
 -20.495  0.306E-01  0.111E-13  0.153E-01  0.153E-01
 -20.485  0.309E-01  0.949E-14  0.155E-01  0.155E-01
 -20.475  0.313E-01  0.824E-14  0.156E-01  0.156E-01
 -20.465  0.316E-01  0.725E-14  0.158E-01  0.158E-01
 -20.455  0.319E-01  0.647E-14  0.160E-01  0.160E-01
 -20.445  0.322E-01  0.586E-14  0.161E-01  0.161E-01
 -20.435  0.325E-01  0.538E-14  0.163E-01  0.163E-01
 -20.425  0.328E-01  0.500E-14  0.164E-01  0.164E-01
 -20.415  0.330E-01  0.470E-14  0.165E-01  0.165E-01
 -20.405  0.332E-01  0.445E-14  0.166E-01  0.166E-01
 -20.395  0.334E-01  0.423E-14  0.167E-01  0.167E-01
 -20.385  0.336E-01  0.403E-14  0.168E-01  0.168E-01
 -20.375  0.338E-01  0.383E-14  0.169E-01  0.169E-01
 -20.365  0.339E-01  0.364E-14  0.170E-01  0.170E-01
 -20.355  0.341E-01  0.345E-14  0.170E-01  0.170E-01
 -20.345  0.343E-01  0.325E-14  0.171E-01  0.171E-01
 -20.335  0.345E-01  0.305E-14  0.173E-01  0.173E-01
 -20.325  0.347E-01  0.285E-14  0.174E-01  0.174E-01
 -20.315  0.350E-01  0.265E-14  0.175E-01  0.175E-01
 -20.305  0.354E-01  0.245E-14  0.177E-01  0.177E-01
 -20.295  0.357E-01  0.225E-14  0.179E-01  0.179E-01
 -20.285  0.361E-01  0.206E-14  0.180E-01  0.180E-01
 -20.275  0.365E-01  0.187E-14  0.182E-01  0.182E-01
 -20.265  0.369E-01  0.170E-14  0.184E-01  0.184E-01
 -20.255  0.373E-01  0.154E-14  0.186E-01  0.186E-01
 -20.245  0.377E-01  0.139E-14  0.188E-01  0.188E-01
 -20.235  0.380E-01  0.126E-14  0.190E-01  0.190E-01
 -20.225  0.383E-01  0.114E-14  0.192E-01  0.192E-01
 -20.215  0.386E-01  0.104E-14  0.193E-01  0.193E-01
 -20.205  0.388E-01  0.950E-15  0.194E-01  0.194E-01
 -20.195  0.389E-01  0.871E-15  0.195E-01  0.195E-01
 -20.185  0.391E-01  0.804E-15  0.195E-01  0.195E-01
 -20.175  0.391E-01  0.747E-15  0.196E-01  0.196E-01
 -20.165  0.391E-01  0.700E-15  0.196E-01  0.196E-01
 -20.155  0.392E-01  0.661E-15  0.196E-01  0.196E-01
 -20.145  0.392E-01  0.630E-15  0.196E-01  0.196E-01
 -20.135  0.392E-01  0.606E-15  0.196E-01  0.196E-01
 -20.125  0.392E-01  0.588E-15  0.196E-01  0.196E-01
 -20.115  0.393E-01  0.575E-15  0.197E-01  0.197E-01
 -20.105  0.394E-01  0.568E-15  0.197E-01  0.197E-01
 -20.095  0.396E-01  0.565E-15  0.198E-01  0.198E-01
 -20.085  0.399E-01  0.567E-15  0.200E-01  0.200E-01
 -20.075  0.403E-01  0.572E-15  0.201E-01  0.201E-01
 -20.065  0.406E-01  0.581E-15  0.203E-01  0.203E-01
 -20.055  0.411E-01  0.593E-15  0.205E-01  0.205E-01
 -20.045  0.416E-01  0.606E-15  0.208E-01  0.208E-01
 -20.035  0.421E-01  0.621E-15  0.210E-01  0.210E-01
 -20.025  0.426E-01  0.637E-15  0.213E-01  0.213E-01
 -20.015  0.431E-01  0.653E-15  0.215E-01  0.215E-01
 -20.005  0.436E-01  0.667E-15  0.218E-01  0.218E-01
 -19.995  0.440E-01  0.680E-15  0.220E-01  0.220E-01
 -19.985  0.443E-01  0.691E-15  0.221E-01  0.221E-01
 -19.975  0.446E-01  0.699E-15  0.223E-01  0.223E-01
 -19.965  0.447E-01  0.703E-15  0.224E-01  0.224E-01
 -19.955  0.448E-01  0.703E-15  0.224E-01  0.224E-01
 -19.945  0.448E-01  0.699E-15  0.224E-01  0.224E-01
 -19.935  0.447E-01  0.691E-15  0.224E-01  0.224E-01
 -19.925  0.446E-01  0.679E-15  0.223E-01  0.223E-01
 -19.915  0.444E-01  0.663E-15  0.222E-01  0.222E-01
 -19.905  0.442E-01  0.644E-15  0.221E-01  0.221E-01
 -19.895  0.440E-01  0.622E-15  0.220E-01  0.220E-01
 -19.885  0.439E-01  0.597E-15  0.219E-01  0.219E-01
 -19.875  0.438E-01  0.571E-15  0.219E-01  0.219E-01
 -19.865  0.437E-01  0.545E-15  0.219E-01  0.219E-01
 -19.855  0.438E-01  0.518E-15  0.219E-01  0.219E-01
 -19.845  0.439E-01  0.491E-15  0.220E-01  0.220E-01
 -19.835  0.442E-01  0.466E-15  0.221E-01  0.221E-01
 -19.825  0.445E-01  0.442E-15  0.223E-01  0.223E-01
 -19.815  0.450E-01  0.420E-15  0.225E-01  0.225E-01
 -19.805  0.455E-01  0.400E-15  0.228E-01  0.228E-01
 -19.795  0.461E-01  0.382E-15  0.231E-01  0.231E-01
 -19.785  0.468E-01  0.366E-15  0.234E-01  0.234E-01
 -19.775  0.474E-01  0.351E-15  0.237E-01  0.237E-01
 -19.765  0.481E-01  0.339E-15  0.241E-01  0.241E-01
 -19.755  0.487E-01  0.328E-15  0.244E-01  0.244E-01
 -19.745  0.493E-01  0.319E-15  0.247E-01  0.247E-01
 -19.735  0.498E-01  0.310E-15  0.249E-01  0.249E-01
 -19.725  0.502E-01  0.303E-15  0.251E-01  0.251E-01
 -19.715  0.505E-01  0.296E-15  0.252E-01  0.252E-01
 -19.705  0.506E-01  0.290E-15  0.253E-01  0.253E-01
 -19.695  0.507E-01  0.285E-15  0.253E-01  0.253E-01
 -19.685  0.506E-01  0.282E-15  0.253E-01  0.253E-01
 -19.675  0.504E-01  0.279E-15  0.252E-01  0.252E-01
 -19.665  0.501E-01  0.279E-15  0.250E-01  0.250E-01
 -19.655  0.497E-01  0.281E-15  0.249E-01  0.249E-01
 -19.645  0.493E-01  0.286E-15  0.247E-01  0.247E-01
 -19.635  0.489E-01  0.294E-15  0.245E-01  0.245E-01
 -19.625  0.485E-01  0.305E-15  0.243E-01  0.243E-01
 -19.615  0.482E-01  0.321E-15  0.241E-01  0.241E-01
 -19.605  0.479E-01  0.342E-15  0.239E-01  0.239E-01
 -19.595  0.477E-01  0.367E-15  0.238E-01  0.238E-01
 -19.585  0.476E-01  0.396E-15  0.238E-01  0.238E-01
 -19.575  0.477E-01  0.431E-15  0.238E-01  0.238E-01
 -19.565  0.479E-01  0.469E-15  0.239E-01  0.239E-01
 -19.555  0.482E-01  0.510E-15  0.241E-01  0.241E-01
 -19.545  0.487E-01  0.554E-15  0.243E-01  0.243E-01
 -19.535  0.492E-01  0.600E-15  0.246E-01  0.246E-01
 -19.525  0.499E-01  0.645E-15  0.250E-01  0.250E-01
 -19.515  0.507E-01  0.690E-15  0.254E-01  0.254E-01
 -19.505  0.515E-01  0.732E-15  0.258E-01  0.258E-01
 -19.495  0.524E-01  0.771E-15  0.262E-01  0.262E-01
 -19.485  0.533E-01  0.805E-15  0.266E-01  0.266E-01
 -19.475  0.541E-01  0.833E-15  0.270E-01  0.270E-01
 -19.465  0.548E-01  0.854E-15  0.274E-01  0.274E-01
 -19.455  0.555E-01  0.867E-15  0.277E-01  0.277E-01
 -19.445  0.560E-01  0.872E-15  0.280E-01  0.280E-01
 -19.435  0.564E-01  0.869E-15  0.282E-01  0.282E-01
 -19.425  0.566E-01  0.857E-15  0.283E-01  0.283E-01
 -19.415  0.566E-01  0.839E-15  0.283E-01  0.283E-01
 -19.405  0.565E-01  0.814E-15  0.282E-01  0.282E-01
 -19.395  0.562E-01  0.783E-15  0.281E-01  0.281E-01
 -19.385  0.558E-01  0.748E-15  0.279E-01  0.279E-01
 -19.375  0.553E-01  0.710E-15  0.276E-01  0.276E-01
 -19.365  0.547E-01  0.670E-15  0.273E-01  0.273E-01
 -19.355  0.540E-01  0.630E-15  0.270E-01  0.270E-01
 -19.345  0.533E-01  0.592E-15  0.267E-01  0.267E-01
 -19.335  0.527E-01  0.557E-15  0.264E-01  0.264E-01
 -19.325  0.521E-01  0.525E-15  0.261E-01  0.261E-01
 -19.315  0.516E-01  0.499E-15  0.258E-01  0.258E-01
 -19.305  0.513E-01  0.478E-15  0.256E-01  0.256E-01
 -19.295  0.510E-01  0.464E-15  0.255E-01  0.255E-01
 -19.285  0.510E-01  0.456E-15  0.255E-01  0.255E-01
 -19.275  0.511E-01  0.455E-15  0.256E-01  0.256E-01
 -19.265  0.514E-01  0.461E-15  0.257E-01  0.257E-01
 -19.255  0.518E-01  0.472E-15  0.259E-01  0.259E-01
 -19.245  0.525E-01  0.490E-15  0.262E-01  0.262E-01
 -19.235  0.532E-01  0.512E-15  0.266E-01  0.266E-01
 -19.225  0.541E-01  0.539E-15  0.270E-01  0.270E-01
 -19.215  0.550E-01  0.568E-15  0.275E-01  0.275E-01
 -19.205  0.560E-01  0.599E-15  0.280E-01  0.280E-01
 -19.195  0.571E-01  0.630E-15  0.285E-01  0.285E-01
 -19.185  0.581E-01  0.662E-15  0.291E-01  0.291E-01
 -19.175  0.591E-01  0.691E-15  0.295E-01  0.295E-01
 -19.165  0.600E-01  0.718E-15  0.300E-01  0.300E-01
 -19.155  0.608E-01  0.742E-15  0.304E-01  0.304E-01
 -19.145  0.614E-01  0.761E-15  0.307E-01  0.307E-01
 -19.135  0.619E-01  0.776E-15  0.310E-01  0.310E-01
 -19.125  0.622E-01  0.786E-15  0.311E-01  0.311E-01
 -19.115  0.624E-01  0.790E-15  0.312E-01  0.312E-01
 -19.105  0.623E-01  0.790E-15  0.312E-01  0.312E-01
 -19.095  0.621E-01  0.786E-15  0.310E-01  0.310E-01
 -19.085  0.617E-01  0.778E-15  0.308E-01  0.308E-01
 -19.075  0.611E-01  0.767E-15  0.306E-01  0.306E-01
 -19.065  0.604E-01  0.754E-15  0.302E-01  0.302E-01
 -19.055  0.596E-01  0.740E-15  0.298E-01  0.298E-01
 -19.045  0.588E-01  0.726E-15  0.294E-01  0.294E-01
 -19.035  0.579E-01  0.712E-15  0.289E-01  0.289E-01
 -19.025  0.570E-01  0.701E-15  0.285E-01  0.285E-01
 -19.015  0.561E-01  0.691E-15  0.281E-01  0.281E-01
 -19.005  0.554E-01  0.685E-15  0.277E-01  0.277E-01
 -18.995  0.547E-01  0.682E-15  0.274E-01  0.274E-01
 -18.985  0.543E-01  0.682E-15  0.271E-01  0.271E-01
 -18.975  0.540E-01  0.686E-15  0.270E-01  0.270E-01
 -18.965  0.539E-01  0.692E-15  0.270E-01  0.270E-01
 -18.955  0.540E-01  0.701E-15  0.270E-01  0.270E-01
 -18.945  0.544E-01  0.712E-15  0.272E-01  0.272E-01
 -18.935  0.550E-01  0.724E-15  0.275E-01  0.275E-01
 -18.925  0.557E-01  0.736E-15  0.279E-01  0.279E-01
 -18.915  0.567E-01  0.747E-15  0.283E-01  0.283E-01
 -18.905  0.578E-01  0.757E-15  0.289E-01  0.289E-01
 -18.895  0.589E-01  0.764E-15  0.295E-01  0.295E-01
 -18.885  0.602E-01  0.769E-15  0.301E-01  0.301E-01
 -18.875  0.615E-01  0.769E-15  0.307E-01  0.307E-01
 -18.865  0.628E-01  0.766E-15  0.314E-01  0.314E-01
 -18.855  0.640E-01  0.759E-15  0.320E-01  0.320E-01
 -18.845  0.651E-01  0.748E-15  0.325E-01  0.325E-01
 -18.835  0.660E-01  0.732E-15  0.330E-01  0.330E-01
 -18.825  0.668E-01  0.713E-15  0.334E-01  0.334E-01
 -18.815  0.674E-01  0.691E-15  0.337E-01  0.337E-01
 -18.805  0.678E-01  0.666E-15  0.339E-01  0.339E-01
 -18.795  0.680E-01  0.639E-15  0.340E-01  0.340E-01
 -18.785  0.680E-01  0.610E-15  0.340E-01  0.340E-01
 -18.775  0.678E-01  0.581E-15  0.339E-01  0.339E-01
 -18.765  0.674E-01  0.551E-15  0.337E-01  0.337E-01
 -18.755  0.668E-01  0.522E-15  0.334E-01  0.334E-01
 -18.745  0.661E-01  0.495E-15  0.330E-01  0.330E-01
 -18.735  0.652E-01  0.469E-15  0.326E-01  0.326E-01
 -18.725  0.643E-01  0.445E-15  0.321E-01  0.321E-01
 -18.715  0.633E-01  0.423E-15  0.316E-01  0.316E-01
 -18.705  0.623E-01  0.405E-15  0.311E-01  0.311E-01
 -18.695  0.612E-01  0.390E-15  0.306E-01  0.306E-01
 -18.685  0.603E-01  0.378E-15  0.301E-01  0.301E-01
 -18.675  0.594E-01  0.370E-15  0.297E-01  0.297E-01
 -18.665  0.586E-01  0.365E-15  0.293E-01  0.293E-01
 -18.655  0.579E-01  0.364E-15  0.289E-01  0.289E-01
 -18.645  0.574E-01  0.367E-15  0.287E-01  0.287E-01
 -18.635  0.570E-01  0.374E-15  0.285E-01  0.285E-01
 -18.625  0.569E-01  0.385E-15  0.285E-01  0.285E-01
 -18.615  0.570E-01  0.399E-15  0.285E-01  0.285E-01
 -18.605  0.573E-01  0.416E-15  0.287E-01  0.287E-01
 -18.595  0.579E-01  0.436E-15  0.289E-01  0.289E-01
 -18.585  0.587E-01  0.459E-15  0.293E-01  0.293E-01
 -18.575  0.597E-01  0.484E-15  0.298E-01  0.298E-01
 -18.565  0.609E-01  0.510E-15  0.304E-01  0.304E-01
 -18.555  0.622E-01  0.536E-15  0.311E-01  0.311E-01
 -18.545  0.637E-01  0.563E-15  0.318E-01  0.318E-01
 -18.535  0.652E-01  0.589E-15  0.326E-01  0.326E-01
 -18.525  0.667E-01  0.613E-15  0.334E-01  0.334E-01
 -18.515  0.682E-01  0.634E-15  0.341E-01  0.341E-01
 -18.505  0.697E-01  0.653E-15  0.348E-01  0.348E-01
 -18.495  0.710E-01  0.667E-15  0.355E-01  0.355E-01
 -18.485  0.721E-01  0.678E-15  0.360E-01  0.360E-01
 -18.475  0.730E-01  0.684E-15  0.365E-01  0.365E-01
 -18.465  0.736E-01  0.685E-15  0.368E-01  0.368E-01
 -18.455  0.740E-01  0.681E-15  0.370E-01  0.370E-01
 -18.445  0.741E-01  0.672E-15  0.371E-01  0.371E-01
 -18.435  0.740E-01  0.660E-15  0.370E-01  0.370E-01
 -18.425  0.736E-01  0.643E-15  0.368E-01  0.368E-01
 -18.415  0.729E-01  0.622E-15  0.365E-01  0.365E-01
 -18.405  0.721E-01  0.599E-15  0.360E-01  0.360E-01
 -18.395  0.711E-01  0.574E-15  0.355E-01  0.355E-01
 -18.385  0.699E-01  0.547E-15  0.350E-01  0.350E-01
 -18.375  0.687E-01  0.519E-15  0.344E-01  0.344E-01
 -18.365  0.674E-01  0.492E-15  0.337E-01  0.337E-01
 -18.355  0.662E-01  0.465E-15  0.331E-01  0.331E-01
 -18.345  0.650E-01  0.440E-15  0.325E-01  0.325E-01
 -18.335  0.638E-01  0.416E-15  0.319E-01  0.319E-01
 -18.325  0.628E-01  0.395E-15  0.314E-01  0.314E-01
 -18.315  0.619E-01  0.377E-15  0.309E-01  0.309E-01
 -18.305  0.611E-01  0.362E-15  0.306E-01  0.306E-01
 -18.295  0.606E-01  0.351E-15  0.303E-01  0.303E-01
 -18.285  0.602E-01  0.345E-15  0.301E-01  0.301E-01
 -18.275  0.600E-01  0.342E-15  0.300E-01  0.300E-01
 -18.265  0.601E-01  0.344E-15  0.300E-01  0.300E-01
 -18.255  0.603E-01  0.351E-15  0.301E-01  0.301E-01
 -18.245  0.607E-01  0.362E-15  0.304E-01  0.304E-01
 -18.235  0.614E-01  0.379E-15  0.307E-01  0.307E-01
 -18.225  0.623E-01  0.402E-15  0.311E-01  0.311E-01
 -18.215  0.633E-01  0.429E-15  0.316E-01  0.316E-01
 -18.205  0.645E-01  0.463E-15  0.323E-01  0.323E-01
 -18.195  0.659E-01  0.501E-15  0.329E-01  0.329E-01
 -18.185  0.673E-01  0.545E-15  0.337E-01  0.337E-01
 -18.175  0.689E-01  0.595E-15  0.344E-01  0.344E-01
 -18.165  0.705E-01  0.649E-15  0.352E-01  0.352E-01
 -18.155  0.721E-01  0.708E-15  0.360E-01  0.360E-01
 -18.145  0.736E-01  0.770E-15  0.368E-01  0.368E-01
 -18.135  0.751E-01  0.836E-15  0.376E-01  0.376E-01
 -18.125  0.765E-01  0.905E-15  0.382E-01  0.382E-01
 -18.115  0.776E-01  0.975E-15  0.388E-01  0.388E-01
 -18.105  0.786E-01  0.104E-14  0.393E-01  0.393E-01
 -18.095  0.793E-01  0.111E-14  0.397E-01  0.397E-01
 -18.085  0.798E-01  0.118E-14  0.399E-01  0.399E-01
 -18.075  0.799E-01  0.124E-14  0.400E-01  0.400E-01
 -18.065  0.798E-01  0.130E-14  0.399E-01  0.399E-01
 -18.055  0.794E-01  0.135E-14  0.397E-01  0.397E-01
 -18.045  0.787E-01  0.140E-14  0.394E-01  0.394E-01
 -18.035  0.778E-01  0.143E-14  0.389E-01  0.389E-01
 -18.025  0.766E-01  0.145E-14  0.383E-01  0.383E-01
 -18.015  0.753E-01  0.146E-14  0.376E-01  0.376E-01
 -18.005  0.738E-01  0.147E-14  0.369E-01  0.369E-01
 -17.995  0.722E-01  0.145E-14  0.361E-01  0.361E-01
 -17.985  0.707E-01  0.143E-14  0.353E-01  0.353E-01
 -17.975  0.691E-01  0.140E-14  0.345E-01  0.345E-01
 -17.965  0.676E-01  0.135E-14  0.338E-01  0.338E-01
 -17.955  0.662E-01  0.130E-14  0.331E-01  0.331E-01
 -17.945  0.650E-01  0.124E-14  0.325E-01  0.325E-01
 -17.935  0.640E-01  0.117E-14  0.320E-01  0.320E-01
 -17.925  0.632E-01  0.110E-14  0.316E-01  0.316E-01
 -17.915  0.626E-01  0.103E-14  0.313E-01  0.313E-01
 -17.905  0.624E-01  0.956E-15  0.312E-01  0.312E-01
 -17.895  0.623E-01  0.883E-15  0.312E-01  0.312E-01
 -17.885  0.626E-01  0.811E-15  0.313E-01  0.313E-01
 -17.875  0.631E-01  0.743E-15  0.316E-01  0.316E-01
 -17.865  0.639E-01  0.679E-15  0.319E-01  0.319E-01
 -17.855  0.648E-01  0.621E-15  0.324E-01  0.324E-01
 -17.845  0.660E-01  0.568E-15  0.330E-01  0.330E-01
 -17.835  0.674E-01  0.521E-15  0.337E-01  0.337E-01
 -17.825  0.689E-01  0.481E-15  0.344E-01  0.344E-01
 -17.815  0.705E-01  0.446E-15  0.353E-01  0.353E-01
 -17.805  0.722E-01  0.418E-15  0.361E-01  0.361E-01
 -17.795  0.739E-01  0.394E-15  0.369E-01  0.369E-01
 -17.785  0.756E-01  0.376E-15  0.378E-01  0.378E-01
 -17.775  0.773E-01  0.361E-15  0.386E-01  0.386E-01
 -17.765  0.788E-01  0.350E-15  0.394E-01  0.394E-01
 -17.755  0.803E-01  0.342E-15  0.402E-01  0.402E-01
 -17.745  0.816E-01  0.336E-15  0.408E-01  0.408E-01
 -17.735  0.828E-01  0.332E-15  0.414E-01  0.414E-01
 -17.725  0.837E-01  0.329E-15  0.418E-01  0.418E-01
 -17.715  0.844E-01  0.326E-15  0.422E-01  0.422E-01
 -17.705  0.849E-01  0.323E-15  0.424E-01  0.424E-01
 -17.695  0.851E-01  0.320E-15  0.425E-01  0.425E-01
 -17.685  0.851E-01  0.317E-15  0.425E-01  0.425E-01
 -17.675  0.848E-01  0.313E-15  0.424E-01  0.424E-01
 -17.665  0.842E-01  0.308E-15  0.421E-01  0.421E-01
 -17.655  0.835E-01  0.303E-15  0.417E-01  0.417E-01
 -17.645  0.825E-01  0.297E-15  0.413E-01  0.413E-01
 -17.635  0.814E-01  0.290E-15  0.407E-01  0.407E-01
 -17.625  0.800E-01  0.284E-15  0.400E-01  0.400E-01
 -17.615  0.786E-01  0.277E-15  0.393E-01  0.393E-01
 -17.605  0.770E-01  0.270E-15  0.385E-01  0.385E-01
 -17.595  0.754E-01  0.263E-15  0.377E-01  0.377E-01
 -17.585  0.737E-01  0.257E-15  0.369E-01  0.369E-01
 -17.575  0.721E-01  0.252E-15  0.361E-01  0.361E-01
 -17.565  0.706E-01  0.248E-15  0.353E-01  0.353E-01
 -17.555  0.691E-01  0.245E-15  0.346E-01  0.346E-01
 -17.545  0.679E-01  0.243E-15  0.339E-01  0.339E-01
 -17.535  0.668E-01  0.241E-15  0.334E-01  0.334E-01
 -17.525  0.660E-01  0.241E-15  0.330E-01  0.330E-01
 -17.515  0.655E-01  0.243E-15  0.327E-01  0.327E-01
 -17.505  0.652E-01  0.244E-15  0.326E-01  0.326E-01
 -17.495  0.653E-01  0.247E-15  0.326E-01  0.326E-01
 -17.485  0.656E-01  0.250E-15  0.328E-01  0.328E-01
 -17.475  0.663E-01  0.253E-15  0.332E-01  0.332E-01
 -17.465  0.673E-01  0.257E-15  0.337E-01  0.337E-01
 -17.455  0.686E-01  0.261E-15  0.343E-01  0.343E-01
 -17.445  0.702E-01  0.264E-15  0.351E-01  0.351E-01
 -17.435  0.719E-01  0.267E-15  0.360E-01  0.360E-01
 -17.425  0.738E-01  0.269E-15  0.369E-01  0.369E-01
 -17.415  0.759E-01  0.272E-15  0.379E-01  0.379E-01
 -17.405  0.780E-01  0.274E-15  0.390E-01  0.390E-01
 -17.395  0.801E-01  0.276E-15  0.400E-01  0.400E-01
 -17.385  0.821E-01  0.278E-15  0.411E-01  0.411E-01
 -17.375  0.841E-01  0.280E-15  0.420E-01  0.420E-01
 -17.365  0.859E-01  0.282E-15  0.430E-01  0.430E-01
 -17.355  0.875E-01  0.286E-15  0.438E-01  0.438E-01
 -17.345  0.889E-01  0.291E-15  0.445E-01  0.445E-01
 -17.335  0.901E-01  0.297E-15  0.450E-01  0.450E-01
 -17.325  0.910E-01  0.305E-15  0.455E-01  0.455E-01
 -17.315  0.916E-01  0.315E-15  0.458E-01  0.458E-01
 -17.305  0.919E-01  0.328E-15  0.459E-01  0.459E-01
 -17.295  0.919E-01  0.344E-15  0.459E-01  0.459E-01
 -17.285  0.916E-01  0.362E-15  0.458E-01  0.458E-01
 -17.275  0.911E-01  0.383E-15  0.456E-01  0.456E-01
 -17.265  0.904E-01  0.407E-15  0.452E-01  0.452E-01
 -17.255  0.894E-01  0.433E-15  0.447E-01  0.447E-01
 -17.245  0.883E-01  0.460E-15  0.442E-01  0.442E-01
 -17.235  0.870E-01  0.490E-15  0.435E-01  0.435E-01
 -17.225  0.857E-01  0.520E-15  0.428E-01  0.428E-01
 -17.215  0.842E-01  0.550E-15  0.421E-01  0.421E-01
 -17.205  0.826E-01  0.579E-15  0.413E-01  0.413E-01
 -17.195  0.810E-01  0.607E-15  0.405E-01  0.405E-01
 -17.185  0.795E-01  0.633E-15  0.397E-01  0.397E-01
 -17.175  0.779E-01  0.656E-15  0.390E-01  0.390E-01
 -17.165  0.764E-01  0.676E-15  0.382E-01  0.382E-01
 -17.155  0.750E-01  0.692E-15  0.375E-01  0.375E-01
 -17.145  0.738E-01  0.704E-15  0.369E-01  0.369E-01
 -17.135  0.727E-01  0.711E-15  0.363E-01  0.363E-01
 -17.125  0.718E-01  0.715E-15  0.359E-01  0.359E-01
 -17.115  0.712E-01  0.715E-15  0.356E-01  0.356E-01
 -17.105  0.708E-01  0.713E-15  0.354E-01  0.354E-01
 -17.095  0.707E-01  0.708E-15  0.353E-01  0.353E-01
 -17.085  0.709E-01  0.702E-15  0.354E-01  0.354E-01
 -17.075  0.714E-01  0.696E-15  0.357E-01  0.357E-01
 -17.065  0.723E-01  0.691E-15  0.361E-01  0.361E-01
 -17.055  0.734E-01  0.688E-15  0.367E-01  0.367E-01
 -17.045  0.749E-01  0.687E-15  0.375E-01  0.375E-01
 -17.035  0.767E-01  0.690E-15  0.384E-01  0.384E-01
 -17.025  0.787E-01  0.696E-15  0.394E-01  0.394E-01
 -17.015  0.810E-01  0.707E-15  0.405E-01  0.405E-01
 -17.005  0.834E-01  0.721E-15  0.417E-01  0.417E-01
 -16.995  0.859E-01  0.739E-15  0.429E-01  0.429E-01
 -16.985  0.884E-01  0.761E-15  0.442E-01  0.442E-01
 -16.975  0.909E-01  0.786E-15  0.455E-01  0.455E-01
 -16.965  0.934E-01  0.812E-15  0.467E-01  0.467E-01
 -16.955  0.957E-01  0.839E-15  0.478E-01  0.478E-01
 -16.945  0.978E-01  0.865E-15  0.489E-01  0.489E-01
 -16.935  0.997E-01  0.891E-15  0.498E-01  0.498E-01
 -16.925  0.101E+00  0.913E-15  0.507E-01  0.507E-01
 -16.915  0.103E+00  0.933E-15  0.513E-01  0.513E-01
 -16.905  0.104E+00  0.947E-15  0.518E-01  0.518E-01
 -16.895  0.104E+00  0.957E-15  0.522E-01  0.522E-01
 -16.885  0.105E+00  0.961E-15  0.524E-01  0.524E-01
 -16.875  0.105E+00  0.960E-15  0.524E-01  0.524E-01
 -16.865  0.105E+00  0.952E-15  0.524E-01  0.524E-01
 -16.855  0.104E+00  0.938E-15  0.522E-01  0.522E-01
 -16.845  0.104E+00  0.919E-15  0.518E-01  0.518E-01
 -16.835  0.103E+00  0.894E-15  0.514E-01  0.514E-01
 -16.825  0.102E+00  0.864E-15  0.509E-01  0.509E-01
 -16.815  0.101E+00  0.830E-15  0.504E-01  0.504E-01
 -16.805  0.997E-01  0.793E-15  0.498E-01  0.498E-01
 -16.795  0.985E-01  0.752E-15  0.493E-01  0.493E-01
 -16.785  0.973E-01  0.709E-15  0.487E-01  0.487E-01
 -16.775  0.962E-01  0.665E-15  0.481E-01  0.481E-01
 -16.765  0.952E-01  0.620E-15  0.476E-01  0.476E-01
 -16.755  0.942E-01  0.575E-15  0.471E-01  0.471E-01
 -16.745  0.933E-01  0.531E-15  0.467E-01  0.467E-01
 -16.735  0.926E-01  0.488E-15  0.463E-01  0.463E-01
 -16.725  0.921E-01  0.448E-15  0.460E-01  0.460E-01
 -16.715  0.916E-01  0.409E-15  0.458E-01  0.458E-01
 -16.705  0.914E-01  0.374E-15  0.457E-01  0.457E-01
 -16.695  0.913E-01  0.342E-15  0.457E-01  0.457E-01
 -16.685  0.914E-01  0.313E-15  0.457E-01  0.457E-01
 -16.675  0.917E-01  0.289E-15  0.459E-01  0.459E-01
 -16.665  0.922E-01  0.269E-15  0.461E-01  0.461E-01
 -16.655  0.928E-01  0.253E-15  0.464E-01  0.464E-01
 -16.645  0.936E-01  0.242E-15  0.468E-01  0.468E-01
 -16.635  0.945E-01  0.235E-15  0.473E-01  0.473E-01
 -16.625  0.956E-01  0.232E-15  0.478E-01  0.478E-01
 -16.615  0.968E-01  0.233E-15  0.484E-01  0.484E-01
 -16.605  0.981E-01  0.238E-15  0.490E-01  0.490E-01
 -16.595  0.994E-01  0.246E-15  0.497E-01  0.497E-01
 -16.585  0.101E+00  0.258E-15  0.504E-01  0.504E-01
 -16.575  0.102E+00  0.272E-15  0.511E-01  0.511E-01
 -16.565  0.103E+00  0.287E-15  0.517E-01  0.517E-01
 -16.555  0.105E+00  0.304E-15  0.523E-01  0.523E-01
 -16.545  0.106E+00  0.322E-15  0.529E-01  0.529E-01
 -16.535  0.107E+00  0.339E-15  0.533E-01  0.533E-01
 -16.525  0.107E+00  0.356E-15  0.536E-01  0.536E-01
 -16.515  0.108E+00  0.372E-15  0.538E-01  0.538E-01
 -16.505  0.108E+00  0.386E-15  0.538E-01  0.538E-01
 -16.495  0.107E+00  0.397E-15  0.535E-01  0.535E-01
 -16.485  0.106E+00  0.406E-15  0.531E-01  0.531E-01
 -16.475  0.105E+00  0.411E-15  0.525E-01  0.525E-01
 -16.465  0.103E+00  0.413E-15  0.516E-01  0.516E-01
 -16.455  0.101E+00  0.411E-15  0.504E-01  0.504E-01
 -16.445  0.981E-01  0.406E-15  0.491E-01  0.491E-01
 -16.435  0.949E-01  0.398E-15  0.475E-01  0.475E-01
 -16.425  0.913E-01  0.386E-15  0.457E-01  0.457E-01
 -16.415  0.874E-01  0.371E-15  0.437E-01  0.437E-01
 -16.405  0.832E-01  0.354E-15  0.416E-01  0.416E-01
 -16.395  0.788E-01  0.335E-15  0.394E-01  0.394E-01
 -16.385  0.742E-01  0.314E-15  0.371E-01  0.371E-01
 -16.375  0.697E-01  0.292E-15  0.348E-01  0.348E-01
 -16.365  0.652E-01  0.270E-15  0.326E-01  0.326E-01
 -16.355  0.609E-01  0.248E-15  0.304E-01  0.304E-01
 -16.345  0.568E-01  0.227E-15  0.284E-01  0.284E-01
 -16.335  0.531E-01  0.206E-15  0.266E-01  0.266E-01
 -16.325  0.498E-01  0.187E-15  0.249E-01  0.249E-01
 -16.315  0.470E-01  0.170E-15  0.235E-01  0.235E-01
 -16.305  0.448E-01  0.155E-15  0.224E-01  0.224E-01
 -16.295  0.432E-01  0.143E-15  0.216E-01  0.216E-01
 -16.285  0.422E-01  0.133E-15  0.211E-01  0.211E-01
 -16.275  0.418E-01  0.125E-15  0.209E-01  0.209E-01
 -16.265  0.420E-01  0.120E-15  0.210E-01  0.210E-01
 -16.255  0.429E-01  0.117E-15  0.214E-01  0.214E-01
 -16.245  0.443E-01  0.117E-15  0.221E-01  0.221E-01
 -16.235  0.461E-01  0.118E-15  0.231E-01  0.231E-01
 -16.225  0.484E-01  0.121E-15  0.242E-01  0.242E-01
 -16.215  0.511E-01  0.126E-15  0.255E-01  0.255E-01
 -16.205  0.539E-01  0.132E-15  0.269E-01  0.269E-01
 -16.195  0.569E-01  0.139E-15  0.284E-01  0.284E-01
 -16.185  0.598E-01  0.146E-15  0.299E-01  0.299E-01
 -16.175  0.626E-01  0.153E-15  0.313E-01  0.313E-01
 -16.165  0.653E-01  0.159E-15  0.326E-01  0.326E-01
 -16.155  0.675E-01  0.165E-15  0.338E-01  0.338E-01
 -16.145  0.694E-01  0.170E-15  0.347E-01  0.347E-01
 -16.135  0.707E-01  0.174E-15  0.354E-01  0.354E-01
 -16.125  0.715E-01  0.176E-15  0.358E-01  0.358E-01
 -16.115  0.717E-01  0.177E-15  0.359E-01  0.359E-01
 -16.105  0.713E-01  0.176E-15  0.356E-01  0.356E-01
 -16.095  0.702E-01  0.174E-15  0.351E-01  0.351E-01
 -16.085  0.686E-01  0.170E-15  0.343E-01  0.343E-01
 -16.075  0.665E-01  0.164E-15  0.332E-01  0.332E-01
 -16.065  0.639E-01  0.157E-15  0.319E-01  0.319E-01
 -16.055  0.609E-01  0.149E-15  0.304E-01  0.304E-01
 -16.045  0.576E-01  0.140E-15  0.288E-01  0.288E-01
 -16.035  0.541E-01  0.131E-15  0.271E-01  0.271E-01
 -16.025  0.505E-01  0.121E-15  0.253E-01  0.253E-01
 -16.015  0.470E-01  0.112E-15  0.235E-01  0.235E-01
 -16.005  0.435E-01  0.102E-15  0.218E-01  0.218E-01
 -15.995  0.402E-01  0.939E-16  0.201E-01  0.201E-01
 -15.985  0.372E-01  0.863E-16  0.186E-01  0.186E-01
 -15.975  0.345E-01  0.799E-16  0.172E-01  0.172E-01
 -15.965  0.321E-01  0.750E-16  0.160E-01  0.160E-01
 -15.955  0.301E-01  0.716E-16  0.150E-01  0.150E-01
 -15.945  0.285E-01  0.701E-16  0.142E-01  0.142E-01
 -15.935  0.273E-01  0.704E-16  0.137E-01  0.137E-01
 -15.925  0.265E-01  0.728E-16  0.133E-01  0.133E-01
 -15.915  0.262E-01  0.772E-16  0.131E-01  0.131E-01
 -15.905  0.261E-01  0.838E-16  0.131E-01  0.131E-01
 -15.895  0.265E-01  0.924E-16  0.132E-01  0.132E-01
 -15.885  0.272E-01  0.103E-15  0.136E-01  0.136E-01
 -15.875  0.281E-01  0.116E-15  0.141E-01  0.141E-01
 -15.865  0.293E-01  0.130E-15  0.146E-01  0.146E-01
 -15.855  0.306E-01  0.146E-15  0.153E-01  0.153E-01
 -15.845  0.322E-01  0.164E-15  0.161E-01  0.161E-01
 -15.835  0.337E-01  0.182E-15  0.169E-01  0.169E-01
 -15.825  0.354E-01  0.201E-15  0.177E-01  0.177E-01
 -15.815  0.370E-01  0.221E-15  0.185E-01  0.185E-01
 -15.805  0.385E-01  0.241E-15  0.193E-01  0.193E-01
 -15.795  0.399E-01  0.260E-15  0.200E-01  0.200E-01
 -15.785  0.411E-01  0.278E-15  0.206E-01  0.206E-01
 -15.775  0.421E-01  0.294E-15  0.211E-01  0.211E-01
 -15.765  0.429E-01  0.309E-15  0.214E-01  0.214E-01
 -15.755  0.433E-01  0.321E-15  0.216E-01  0.216E-01
 -15.745  0.434E-01  0.331E-15  0.217E-01  0.217E-01
 -15.735  0.432E-01  0.338E-15  0.216E-01  0.216E-01
 -15.725  0.427E-01  0.341E-15  0.214E-01  0.214E-01
 -15.715  0.419E-01  0.342E-15  0.209E-01  0.209E-01
 -15.705  0.408E-01  0.339E-15  0.204E-01  0.204E-01
 -15.695  0.394E-01  0.332E-15  0.197E-01  0.197E-01
 -15.685  0.378E-01  0.323E-15  0.189E-01  0.189E-01
 -15.675  0.361E-01  0.311E-15  0.180E-01  0.180E-01
 -15.665  0.342E-01  0.296E-15  0.171E-01  0.171E-01
 -15.655  0.323E-01  0.280E-15  0.161E-01  0.161E-01
 -15.645  0.303E-01  0.262E-15  0.152E-01  0.152E-01
 -15.635  0.284E-01  0.243E-15  0.142E-01  0.142E-01
 -15.625  0.265E-01  0.223E-15  0.133E-01  0.133E-01
 -15.615  0.248E-01  0.203E-15  0.124E-01  0.124E-01
 -15.605  0.232E-01  0.184E-15  0.116E-01  0.116E-01
 -15.595  0.217E-01  0.166E-15  0.109E-01  0.109E-01
 -15.585  0.205E-01  0.149E-15  0.102E-01  0.102E-01
 -15.575  0.194E-01  0.134E-15  0.971E-02  0.971E-02
 -15.565  0.185E-01  0.120E-15  0.927E-02  0.927E-02
 -15.555  0.179E-01  0.109E-15  0.893E-02  0.893E-02
 -15.545  0.174E-01  0.995E-16  0.869E-02  0.869E-02
 -15.535  0.171E-01  0.924E-16  0.854E-02  0.854E-02
 -15.525  0.169E-01  0.877E-16  0.847E-02  0.847E-02
 -15.515  0.169E-01  0.851E-16  0.847E-02  0.847E-02
 -15.505  0.171E-01  0.846E-16  0.855E-02  0.855E-02
 -15.495  0.174E-01  0.861E-16  0.869E-02  0.869E-02
 -15.485  0.178E-01  0.893E-16  0.888E-02  0.888E-02
 -15.475  0.183E-01  0.941E-16  0.913E-02  0.913E-02
 -15.465  0.188E-01  0.100E-15  0.941E-02  0.941E-02
 -15.455  0.195E-01  0.107E-15  0.974E-02  0.974E-02
 -15.445  0.202E-01  0.115E-15  0.101E-01  0.101E-01
 -15.435  0.210E-01  0.123E-15  0.105E-01  0.105E-01
 -15.425  0.218E-01  0.132E-15  0.109E-01  0.109E-01
 -15.415  0.226E-01  0.140E-15  0.113E-01  0.113E-01
 -15.405  0.235E-01  0.148E-15  0.118E-01  0.118E-01
 -15.395  0.244E-01  0.155E-15  0.122E-01  0.122E-01
 -15.385  0.254E-01  0.161E-15  0.127E-01  0.127E-01
 -15.375  0.265E-01  0.166E-15  0.132E-01  0.132E-01
 -15.365  0.276E-01  0.169E-15  0.138E-01  0.138E-01
 -15.355  0.287E-01  0.172E-15  0.144E-01  0.144E-01
 -15.345  0.300E-01  0.173E-15  0.150E-01  0.150E-01
 -15.335  0.315E-01  0.173E-15  0.157E-01  0.157E-01
 -15.325  0.330E-01  0.171E-15  0.165E-01  0.165E-01
 -15.315  0.348E-01  0.168E-15  0.174E-01  0.174E-01
 -15.305  0.368E-01  0.165E-15  0.184E-01  0.184E-01
 -15.295  0.390E-01  0.161E-15  0.195E-01  0.195E-01
 -15.285  0.414E-01  0.156E-15  0.207E-01  0.207E-01
 -15.275  0.442E-01  0.151E-15  0.221E-01  0.221E-01
 -15.265  0.472E-01  0.146E-15  0.236E-01  0.236E-01
 -15.255  0.504E-01  0.141E-15  0.252E-01  0.252E-01
 -15.245  0.540E-01  0.137E-15  0.270E-01  0.270E-01
 -15.235  0.577E-01  0.133E-15  0.289E-01  0.289E-01
 -15.225  0.617E-01  0.131E-15  0.308E-01  0.308E-01
 -15.215  0.658E-01  0.129E-15  0.329E-01  0.329E-01
 -15.205  0.701E-01  0.128E-15  0.351E-01  0.351E-01
 -15.195  0.745E-01  0.128E-15  0.372E-01  0.372E-01
 -15.185  0.789E-01  0.130E-15  0.394E-01  0.394E-01
 -15.175  0.833E-01  0.133E-15  0.416E-01  0.416E-01
 -15.165  0.876E-01  0.137E-15  0.438E-01  0.438E-01
 -15.155  0.919E-01  0.142E-15  0.459E-01  0.459E-01
 -15.145  0.960E-01  0.147E-15  0.480E-01  0.480E-01
 -15.135  0.100E+00  0.154E-15  0.500E-01  0.500E-01
 -15.125  0.104E+00  0.160E-15  0.519E-01  0.519E-01
 -15.115  0.107E+00  0.168E-15  0.537E-01  0.537E-01
 -15.105  0.111E+00  0.175E-15  0.553E-01  0.553E-01
 -15.095  0.114E+00  0.182E-15  0.569E-01  0.569E-01
 -15.085  0.117E+00  0.188E-15  0.584E-01  0.584E-01
 -15.075  0.119E+00  0.194E-15  0.597E-01  0.597E-01
 -15.065  0.122E+00  0.200E-15  0.610E-01  0.610E-01
 -15.055  0.124E+00  0.204E-15  0.621E-01  0.621E-01
 -15.045  0.126E+00  0.207E-15  0.632E-01  0.632E-01
 -15.035  0.128E+00  0.209E-15  0.641E-01  0.641E-01
 -15.025  0.130E+00  0.211E-15  0.650E-01  0.650E-01
 -15.015  0.131E+00  0.211E-15  0.657E-01  0.657E-01
 -15.005  0.133E+00  0.211E-15  0.664E-01  0.664E-01
 -14.995  0.134E+00  0.210E-15  0.670E-01  0.670E-01
 -14.985  0.135E+00  0.208E-15  0.676E-01  0.676E-01
 -14.975  0.136E+00  0.207E-15  0.681E-01  0.681E-01
 -14.965  0.137E+00  0.207E-15  0.686E-01  0.686E-01
 -14.955  0.138E+00  0.207E-15  0.691E-01  0.691E-01
 -14.945  0.139E+00  0.209E-15  0.696E-01  0.696E-01
 -14.935  0.140E+00  0.212E-15  0.701E-01  0.701E-01
 -14.925  0.141E+00  0.218E-15  0.707E-01  0.707E-01
 -14.915  0.143E+00  0.226E-15  0.714E-01  0.714E-01
 -14.905  0.144E+00  0.238E-15  0.722E-01  0.722E-01
 -14.895  0.146E+00  0.253E-15  0.731E-01  0.731E-01
 -14.885  0.148E+00  0.272E-15  0.741E-01  0.741E-01
 -14.875  0.151E+00  0.295E-15  0.753E-01  0.753E-01
 -14.865  0.153E+00  0.322E-15  0.767E-01  0.767E-01
 -14.855  0.156E+00  0.353E-15  0.782E-01  0.782E-01
 -14.845  0.160E+00  0.389E-15  0.798E-01  0.798E-01
 -14.835  0.163E+00  0.428E-15  0.815E-01  0.815E-01
 -14.825  0.167E+00  0.472E-15  0.833E-01  0.833E-01
 -14.815  0.170E+00  0.520E-15  0.851E-01  0.851E-01
 -14.805  0.174E+00  0.570E-15  0.868E-01  0.868E-01
 -14.795  0.177E+00  0.624E-15  0.885E-01  0.885E-01
 -14.785  0.180E+00  0.680E-15  0.901E-01  0.901E-01
 -14.775  0.183E+00  0.738E-15  0.915E-01  0.915E-01
 -14.765  0.185E+00  0.797E-15  0.926E-01  0.926E-01
 -14.755  0.187E+00  0.856E-15  0.936E-01  0.936E-01
 -14.745  0.188E+00  0.914E-15  0.942E-01  0.942E-01
 -14.735  0.189E+00  0.971E-15  0.946E-01  0.946E-01
 -14.725  0.190E+00  0.102E-14  0.948E-01  0.948E-01
 -14.715  0.189E+00  0.108E-14  0.946E-01  0.946E-01
 -14.705  0.189E+00  0.112E-14  0.943E-01  0.943E-01
 -14.695  0.187E+00  0.116E-14  0.937E-01  0.937E-01
 -14.685  0.186E+00  0.120E-14  0.930E-01  0.930E-01
 -14.675  0.184E+00  0.122E-14  0.921E-01  0.921E-01
 -14.665  0.182E+00  0.124E-14  0.912E-01  0.912E-01
 -14.655  0.181E+00  0.125E-14  0.903E-01  0.903E-01
 -14.645  0.179E+00  0.126E-14  0.894E-01  0.894E-01
 -14.635  0.177E+00  0.125E-14  0.886E-01  0.886E-01
 -14.625  0.176E+00  0.124E-14  0.878E-01  0.878E-01
 -14.615  0.174E+00  0.122E-14  0.871E-01  0.871E-01
 -14.605  0.173E+00  0.119E-14  0.866E-01  0.866E-01
 -14.595  0.172E+00  0.115E-14  0.861E-01  0.861E-01
 -14.585  0.171E+00  0.111E-14  0.856E-01  0.856E-01
 -14.575  0.170E+00  0.106E-14  0.852E-01  0.852E-01
 -14.565  0.170E+00  0.101E-14  0.849E-01  0.849E-01
 -14.555  0.169E+00  0.961E-15  0.845E-01  0.845E-01
 -14.545  0.168E+00  0.907E-15  0.841E-01  0.841E-01
 -14.535  0.167E+00  0.853E-15  0.836E-01  0.836E-01
 -14.525  0.166E+00  0.800E-15  0.830E-01  0.830E-01
 -14.515  0.165E+00  0.749E-15  0.824E-01  0.824E-01
 -14.505  0.163E+00  0.699E-15  0.816E-01  0.816E-01
 -14.495  0.161E+00  0.653E-15  0.807E-01  0.807E-01
 -14.485  0.159E+00  0.609E-15  0.796E-01  0.796E-01
 -14.475  0.157E+00  0.569E-15  0.785E-01  0.785E-01
 -14.465  0.154E+00  0.533E-15  0.772E-01  0.772E-01
 -14.455  0.152E+00  0.500E-15  0.759E-01  0.759E-01
 -14.445  0.149E+00  0.471E-15  0.746E-01  0.746E-01
 -14.435  0.147E+00  0.445E-15  0.733E-01  0.733E-01
 -14.425  0.144E+00  0.422E-15  0.719E-01  0.719E-01
 -14.415  0.141E+00  0.402E-15  0.707E-01  0.707E-01
 -14.405  0.139E+00  0.384E-15  0.695E-01  0.695E-01
 -14.395  0.137E+00  0.369E-15  0.684E-01  0.684E-01
 -14.385  0.135E+00  0.356E-15  0.675E-01  0.675E-01
 -14.375  0.134E+00  0.344E-15  0.668E-01  0.668E-01
 -14.365  0.132E+00  0.334E-15  0.661E-01  0.661E-01
 -14.355  0.131E+00  0.324E-15  0.657E-01  0.657E-01
 -14.345  0.131E+00  0.316E-15  0.654E-01  0.654E-01
 -14.335  0.131E+00  0.309E-15  0.653E-01  0.653E-01
 -14.325  0.131E+00  0.302E-15  0.654E-01  0.654E-01
 -14.315  0.131E+00  0.296E-15  0.655E-01  0.655E-01
 -14.305  0.132E+00  0.290E-15  0.658E-01  0.658E-01
 -14.295  0.132E+00  0.284E-15  0.661E-01  0.661E-01
 -14.285  0.133E+00  0.279E-15  0.664E-01  0.664E-01
 -14.275  0.134E+00  0.274E-15  0.668E-01  0.668E-01
 -14.265  0.134E+00  0.269E-15  0.672E-01  0.672E-01
 -14.255  0.135E+00  0.264E-15  0.675E-01  0.675E-01
 -14.245  0.135E+00  0.260E-15  0.677E-01  0.677E-01
 -14.235  0.136E+00  0.255E-15  0.678E-01  0.678E-01
 -14.225  0.136E+00  0.251E-15  0.678E-01  0.678E-01
 -14.215  0.135E+00  0.247E-15  0.677E-01  0.677E-01
 -14.205  0.135E+00  0.244E-15  0.674E-01  0.674E-01
 -14.195  0.134E+00  0.241E-15  0.671E-01  0.671E-01
 -14.185  0.133E+00  0.239E-15  0.665E-01  0.665E-01
 -14.175  0.132E+00  0.238E-15  0.659E-01  0.659E-01
 -14.165  0.130E+00  0.237E-15  0.651E-01  0.651E-01
 -14.155  0.129E+00  0.238E-15  0.643E-01  0.643E-01
 -14.145  0.127E+00  0.239E-15  0.633E-01  0.633E-01
 -14.135  0.125E+00  0.242E-15  0.624E-01  0.624E-01
 -14.125  0.123E+00  0.247E-15  0.614E-01  0.614E-01
 -14.115  0.121E+00  0.253E-15  0.605E-01  0.605E-01
 -14.105  0.119E+00  0.260E-15  0.596E-01  0.596E-01
 -14.095  0.118E+00  0.269E-15  0.588E-01  0.588E-01
 -14.085  0.116E+00  0.280E-15  0.581E-01  0.581E-01
 -14.075  0.115E+00  0.292E-15  0.576E-01  0.576E-01
 -14.065  0.114E+00  0.305E-15  0.572E-01  0.572E-01
 -14.055  0.114E+00  0.320E-15  0.570E-01  0.570E-01
 -14.045  0.114E+00  0.336E-15  0.569E-01  0.569E-01
 -14.035  0.114E+00  0.353E-15  0.571E-01  0.571E-01
 -14.025  0.115E+00  0.371E-15  0.573E-01  0.573E-01
 -14.015  0.116E+00  0.388E-15  0.578E-01  0.578E-01
 -14.005  0.117E+00  0.405E-15  0.583E-01  0.583E-01
 -13.995  0.118E+00  0.422E-15  0.589E-01  0.589E-01
 -13.985  0.119E+00  0.437E-15  0.595E-01  0.595E-01
 -13.975  0.120E+00  0.451E-15  0.601E-01  0.601E-01
 -13.965  0.121E+00  0.463E-15  0.607E-01  0.607E-01
 -13.955  0.122E+00  0.473E-15  0.612E-01  0.612E-01
 -13.945  0.123E+00  0.482E-15  0.615E-01  0.615E-01
 -13.935  0.124E+00  0.488E-15  0.618E-01  0.618E-01
 -13.925  0.124E+00  0.493E-15  0.618E-01  0.618E-01
 -13.915  0.123E+00  0.497E-15  0.617E-01  0.617E-01
 -13.905  0.123E+00  0.500E-15  0.615E-01  0.615E-01
 -13.895  0.122E+00  0.503E-15  0.610E-01  0.610E-01
 -13.885  0.121E+00  0.508E-15  0.604E-01  0.604E-01
 -13.875  0.119E+00  0.515E-15  0.597E-01  0.597E-01
 -13.865  0.118E+00  0.525E-15  0.589E-01  0.589E-01
 -13.855  0.116E+00  0.540E-15  0.581E-01  0.581E-01
 -13.845  0.114E+00  0.561E-15  0.572E-01  0.572E-01
 -13.835  0.113E+00  0.589E-15  0.564E-01  0.564E-01
 -13.825  0.111E+00  0.624E-15  0.556E-01  0.556E-01
 -13.815  0.110E+00  0.668E-15  0.549E-01  0.549E-01
 -13.805  0.109E+00  0.721E-15  0.544E-01  0.544E-01
 -13.795  0.108E+00  0.783E-15  0.539E-01  0.539E-01
 -13.785  0.107E+00  0.853E-15  0.536E-01  0.536E-01
 -13.775  0.107E+00  0.932E-15  0.535E-01  0.535E-01
 -13.765  0.107E+00  0.102E-14  0.535E-01  0.535E-01
 -13.755  0.107E+00  0.111E-14  0.536E-01  0.536E-01
 -13.745  0.108E+00  0.120E-14  0.539E-01  0.539E-01
 -13.735  0.108E+00  0.129E-14  0.542E-01  0.542E-01
 -13.725  0.109E+00  0.138E-14  0.546E-01  0.546E-01
 -13.715  0.110E+00  0.147E-14  0.550E-01  0.550E-01
 -13.705  0.111E+00  0.155E-14  0.553E-01  0.553E-01
 -13.695  0.111E+00  0.162E-14  0.557E-01  0.557E-01
 -13.685  0.112E+00  0.168E-14  0.559E-01  0.559E-01
 -13.675  0.112E+00  0.172E-14  0.561E-01  0.561E-01
 -13.665  0.112E+00  0.175E-14  0.562E-01  0.562E-01
 -13.655  0.112E+00  0.176E-14  0.562E-01  0.562E-01
 -13.645  0.112E+00  0.175E-14  0.560E-01  0.560E-01
 -13.635  0.112E+00  0.173E-14  0.558E-01  0.558E-01
 -13.625  0.111E+00  0.169E-14  0.554E-01  0.554E-01
 -13.615  0.110E+00  0.163E-14  0.550E-01  0.550E-01
 -13.605  0.109E+00  0.156E-14  0.546E-01  0.546E-01
 -13.595  0.108E+00  0.148E-14  0.541E-01  0.541E-01
 -13.585  0.107E+00  0.139E-14  0.536E-01  0.536E-01
 -13.575  0.106E+00  0.130E-14  0.532E-01  0.532E-01
 -13.565  0.106E+00  0.120E-14  0.528E-01  0.528E-01
 -13.555  0.105E+00  0.110E-14  0.525E-01  0.525E-01
 -13.545  0.104E+00  0.100E-14  0.522E-01  0.522E-01
 -13.535  0.104E+00  0.905E-15  0.521E-01  0.521E-01
 -13.525  0.104E+00  0.815E-15  0.520E-01  0.520E-01
 -13.515  0.104E+00  0.730E-15  0.521E-01  0.521E-01
 -13.505  0.104E+00  0.653E-15  0.522E-01  0.522E-01
 -13.495  0.105E+00  0.584E-15  0.523E-01  0.523E-01
 -13.485  0.105E+00  0.523E-15  0.525E-01  0.525E-01
 -13.475  0.106E+00  0.470E-15  0.528E-01  0.528E-01
 -13.465  0.106E+00  0.424E-15  0.530E-01  0.530E-01
 -13.455  0.107E+00  0.385E-15  0.533E-01  0.533E-01
 -13.445  0.107E+00  0.352E-15  0.535E-01  0.535E-01
 -13.435  0.107E+00  0.325E-15  0.536E-01  0.536E-01
 -13.425  0.107E+00  0.302E-15  0.537E-01  0.537E-01
 -13.415  0.107E+00  0.283E-15  0.537E-01  0.537E-01
 -13.405  0.107E+00  0.268E-15  0.536E-01  0.536E-01
 -13.395  0.107E+00  0.254E-15  0.535E-01  0.535E-01
 -13.385  0.106E+00  0.243E-15  0.532E-01  0.532E-01
 -13.375  0.106E+00  0.233E-15  0.529E-01  0.529E-01
 -13.365  0.105E+00  0.224E-15  0.526E-01  0.526E-01
 -13.355  0.104E+00  0.217E-15  0.521E-01  0.521E-01
 -13.345  0.103E+00  0.210E-15  0.517E-01  0.517E-01
 -13.335  0.102E+00  0.205E-15  0.512E-01  0.512E-01
 -13.325  0.101E+00  0.201E-15  0.507E-01  0.507E-01
 -13.315  0.100E+00  0.198E-15  0.502E-01  0.502E-01
 -13.305  0.995E-01  0.197E-15  0.498E-01  0.498E-01
 -13.295  0.987E-01  0.199E-15  0.494E-01  0.494E-01
 -13.285  0.980E-01  0.202E-15  0.490E-01  0.490E-01
 -13.275  0.974E-01  0.208E-15  0.487E-01  0.487E-01
 -13.265  0.970E-01  0.217E-15  0.485E-01  0.485E-01
 -13.255  0.966E-01  0.230E-15  0.483E-01  0.483E-01
 -13.245  0.965E-01  0.246E-15  0.482E-01  0.482E-01
 -13.235  0.964E-01  0.266E-15  0.482E-01  0.482E-01
 -13.225  0.965E-01  0.290E-15  0.483E-01  0.483E-01
 -13.215  0.967E-01  0.319E-15  0.484E-01  0.484E-01
 -13.205  0.970E-01  0.352E-15  0.485E-01  0.485E-01
 -13.195  0.974E-01  0.390E-15  0.487E-01  0.487E-01
 -13.185  0.978E-01  0.432E-15  0.489E-01  0.489E-01
 -13.175  0.983E-01  0.479E-15  0.492E-01  0.492E-01
 -13.165  0.988E-01  0.531E-15  0.494E-01  0.494E-01
 -13.155  0.994E-01  0.588E-15  0.497E-01  0.497E-01
 -13.145  0.999E-01  0.650E-15  0.500E-01  0.500E-01
 -13.135  0.100E+00  0.717E-15  0.502E-01  0.502E-01
 -13.125  0.101E+00  0.789E-15  0.505E-01  0.505E-01
 -13.115  0.102E+00  0.866E-15  0.508E-01  0.508E-01
 -13.105  0.102E+00  0.947E-15  0.510E-01  0.510E-01
 -13.095  0.102E+00  0.103E-14  0.512E-01  0.512E-01
 -13.085  0.103E+00  0.112E-14  0.514E-01  0.514E-01
 -13.075  0.103E+00  0.122E-14  0.515E-01  0.515E-01
 -13.065  0.103E+00  0.132E-14  0.516E-01  0.516E-01
 -13.055  0.103E+00  0.142E-14  0.517E-01  0.517E-01
 -13.045  0.103E+00  0.152E-14  0.516E-01  0.516E-01
 -13.035  0.103E+00  0.162E-14  0.516E-01  0.516E-01
 -13.025  0.103E+00  0.172E-14  0.514E-01  0.514E-01
 -13.015  0.102E+00  0.182E-14  0.512E-01  0.512E-01
 -13.005  0.102E+00  0.191E-14  0.509E-01  0.509E-01
 -12.995  0.101E+00  0.200E-14  0.505E-01  0.505E-01
 -12.985  0.100E+00  0.207E-14  0.500E-01  0.500E-01
 -12.975  0.989E-01  0.214E-14  0.494E-01  0.494E-01
 -12.965  0.976E-01  0.219E-14  0.488E-01  0.488E-01
 -12.955  0.962E-01  0.223E-14  0.481E-01  0.481E-01
 -12.945  0.946E-01  0.225E-14  0.473E-01  0.473E-01
 -12.935  0.930E-01  0.225E-14  0.465E-01  0.465E-01
 -12.925  0.913E-01  0.223E-14  0.457E-01  0.457E-01
 -12.915  0.897E-01  0.220E-14  0.448E-01  0.448E-01
 -12.905  0.881E-01  0.214E-14  0.440E-01  0.440E-01
 -12.895  0.866E-01  0.207E-14  0.433E-01  0.433E-01
 -12.885  0.852E-01  0.199E-14  0.426E-01  0.426E-01
 -12.875  0.841E-01  0.189E-14  0.421E-01  0.421E-01
 -12.865  0.833E-01  0.178E-14  0.417E-01  0.417E-01
 -12.855  0.828E-01  0.166E-14  0.414E-01  0.414E-01
 -12.845  0.827E-01  0.153E-14  0.414E-01  0.414E-01
 -12.835  0.830E-01  0.141E-14  0.415E-01  0.415E-01
 -12.825  0.838E-01  0.128E-14  0.419E-01  0.419E-01
 -12.815  0.850E-01  0.115E-14  0.425E-01  0.425E-01
 -12.805  0.866E-01  0.103E-14  0.433E-01  0.433E-01
 -12.795  0.885E-01  0.919E-15  0.443E-01  0.443E-01
 -12.785  0.908E-01  0.813E-15  0.454E-01  0.454E-01
 -12.775  0.934E-01  0.716E-15  0.467E-01  0.467E-01
 -12.765  0.961E-01  0.628E-15  0.480E-01  0.480E-01
 -12.755  0.988E-01  0.550E-15  0.494E-01  0.494E-01
 -12.745  0.102E+00  0.481E-15  0.508E-01  0.508E-01
 -12.735  0.104E+00  0.422E-15  0.520E-01  0.520E-01
 -12.725  0.106E+00  0.371E-15  0.531E-01  0.531E-01
 -12.715  0.108E+00  0.328E-15  0.541E-01  0.541E-01
 -12.705  0.109E+00  0.292E-15  0.547E-01  0.547E-01
 -12.695  0.110E+00  0.262E-15  0.551E-01  0.551E-01
 -12.685  0.110E+00  0.237E-15  0.552E-01  0.552E-01
 -12.675  0.110E+00  0.217E-15  0.550E-01  0.550E-01
 -12.665  0.109E+00  0.201E-15  0.544E-01  0.544E-01
 -12.655  0.107E+00  0.187E-15  0.536E-01  0.536E-01
 -12.645  0.105E+00  0.177E-15  0.524E-01  0.524E-01
 -12.635  0.102E+00  0.168E-15  0.510E-01  0.510E-01
 -12.625  0.987E-01  0.162E-15  0.494E-01  0.494E-01
 -12.615  0.952E-01  0.159E-15  0.476E-01  0.476E-01
 -12.605  0.916E-01  0.157E-15  0.458E-01  0.458E-01
 -12.595  0.879E-01  0.158E-15  0.439E-01  0.439E-01
 -12.585  0.843E-01  0.162E-15  0.422E-01  0.422E-01
 -12.575  0.811E-01  0.168E-15  0.405E-01  0.405E-01
 -12.565  0.782E-01  0.178E-15  0.391E-01  0.391E-01
 -12.555  0.760E-01  0.192E-15  0.380E-01  0.380E-01
 -12.545  0.744E-01  0.210E-15  0.372E-01  0.372E-01
 -12.535  0.736E-01  0.233E-15  0.368E-01  0.368E-01
 -12.525  0.737E-01  0.262E-15  0.368E-01  0.368E-01
 -12.515  0.747E-01  0.296E-15  0.374E-01  0.374E-01
 -12.505  0.767E-01  0.336E-15  0.383E-01  0.383E-01
 -12.495  0.796E-01  0.384E-15  0.398E-01  0.398E-01
 -12.485  0.834E-01  0.438E-15  0.417E-01  0.417E-01
 -12.475  0.881E-01  0.501E-15  0.440E-01  0.440E-01
 -12.465  0.935E-01  0.571E-15  0.467E-01  0.467E-01
 -12.455  0.994E-01  0.650E-15  0.497E-01  0.497E-01
 -12.445  0.106E+00  0.738E-15  0.529E-01  0.529E-01
 -12.435  0.113E+00  0.835E-15  0.563E-01  0.563E-01
 -12.425  0.119E+00  0.940E-15  0.597E-01  0.597E-01
 -12.415  0.126E+00  0.106E-14  0.631E-01  0.631E-01
 -12.405  0.133E+00  0.118E-14  0.663E-01  0.663E-01
 -12.395  0.139E+00  0.131E-14  0.694E-01  0.694E-01
 -12.385  0.144E+00  0.145E-14  0.721E-01  0.721E-01
 -12.375  0.149E+00  0.160E-14  0.744E-01  0.744E-01
 -12.365  0.153E+00  0.176E-14  0.763E-01  0.763E-01
 -12.355  0.156E+00  0.192E-14  0.778E-01  0.778E-01
 -12.345  0.157E+00  0.208E-14  0.787E-01  0.787E-01
 -12.335  0.158E+00  0.225E-14  0.792E-01  0.792E-01
 -12.325  0.158E+00  0.242E-14  0.792E-01  0.792E-01
 -12.315  0.158E+00  0.258E-14  0.788E-01  0.788E-01
 -12.305  0.156E+00  0.274E-14  0.780E-01  0.780E-01
 -12.295  0.154E+00  0.289E-14  0.769E-01  0.769E-01
 -12.285  0.151E+00  0.303E-14  0.756E-01  0.756E-01
 -12.275  0.148E+00  0.316E-14  0.742E-01  0.742E-01
 -12.265  0.145E+00  0.327E-14  0.727E-01  0.727E-01
 -12.255  0.143E+00  0.337E-14  0.713E-01  0.713E-01
 -12.245  0.140E+00  0.344E-14  0.700E-01  0.700E-01
 -12.235  0.138E+00  0.349E-14  0.690E-01  0.690E-01
 -12.225  0.136E+00  0.351E-14  0.682E-01  0.682E-01
 -12.215  0.136E+00  0.351E-14  0.678E-01  0.678E-01
 -12.205  0.135E+00  0.349E-14  0.677E-01  0.677E-01
 -12.195  0.136E+00  0.344E-14  0.681E-01  0.681E-01
 -12.185  0.138E+00  0.338E-14  0.688E-01  0.688E-01
 -12.175  0.140E+00  0.329E-14  0.698E-01  0.698E-01
 -12.165  0.142E+00  0.318E-14  0.712E-01  0.712E-01
 -12.155  0.146E+00  0.305E-14  0.729E-01  0.729E-01
 -12.145  0.150E+00  0.292E-14  0.748E-01  0.748E-01
 -12.135  0.154E+00  0.277E-14  0.768E-01  0.768E-01
 -12.125  0.158E+00  0.262E-14  0.788E-01  0.788E-01
 -12.115  0.162E+00  0.247E-14  0.808E-01  0.808E-01
 -12.105  0.165E+00  0.232E-14  0.826E-01  0.826E-01
 -12.095  0.169E+00  0.218E-14  0.843E-01  0.843E-01
 -12.085  0.171E+00  0.204E-14  0.856E-01  0.856E-01
 -12.075  0.173E+00  0.191E-14  0.866E-01  0.866E-01
 -12.065  0.175E+00  0.180E-14  0.873E-01  0.873E-01
 -12.055  0.175E+00  0.170E-14  0.875E-01  0.875E-01
 -12.045  0.175E+00  0.163E-14  0.874E-01  0.874E-01
 -12.035  0.174E+00  0.157E-14  0.868E-01  0.868E-01
 -12.025  0.172E+00  0.154E-14  0.859E-01  0.859E-01
 -12.015  0.169E+00  0.152E-14  0.847E-01  0.847E-01
 -12.005  0.166E+00  0.153E-14  0.832E-01  0.832E-01
 -11.995  0.163E+00  0.157E-14  0.816E-01  0.816E-01
 -11.985  0.160E+00  0.163E-14  0.798E-01  0.798E-01
 -11.975  0.156E+00  0.171E-14  0.780E-01  0.780E-01
 -11.965  0.153E+00  0.181E-14  0.763E-01  0.763E-01
 -11.955  0.149E+00  0.194E-14  0.747E-01  0.747E-01
 -11.945  0.146E+00  0.208E-14  0.732E-01  0.732E-01
 -11.935  0.144E+00  0.223E-14  0.721E-01  0.721E-01
 -11.925  0.143E+00  0.239E-14  0.713E-01  0.713E-01
 -11.915  0.142E+00  0.256E-14  0.709E-01  0.709E-01
 -11.905  0.142E+00  0.273E-14  0.709E-01  0.709E-01
 -11.895  0.143E+00  0.290E-14  0.713E-01  0.713E-01
 -11.885  0.144E+00  0.305E-14  0.722E-01  0.722E-01
 -11.875  0.147E+00  0.320E-14  0.734E-01  0.734E-01
 -11.865  0.150E+00  0.333E-14  0.751E-01  0.751E-01
 -11.855  0.154E+00  0.343E-14  0.770E-01  0.770E-01
 -11.845  0.159E+00  0.351E-14  0.793E-01  0.793E-01
 -11.835  0.163E+00  0.356E-14  0.817E-01  0.817E-01
 -11.825  0.168E+00  0.358E-14  0.842E-01  0.842E-01
 -11.815  0.174E+00  0.357E-14  0.868E-01  0.868E-01
 -11.805  0.179E+00  0.353E-14  0.893E-01  0.893E-01
 -11.795  0.183E+00  0.346E-14  0.916E-01  0.916E-01
 -11.785  0.187E+00  0.336E-14  0.936E-01  0.936E-01
 -11.775  0.191E+00  0.323E-14  0.954E-01  0.954E-01
 -11.765  0.193E+00  0.309E-14  0.967E-01  0.967E-01
 -11.755  0.195E+00  0.292E-14  0.975E-01  0.975E-01
 -11.745  0.196E+00  0.275E-14  0.978E-01  0.978E-01
 -11.735  0.195E+00  0.256E-14  0.976E-01  0.976E-01
 -11.725  0.194E+00  0.237E-14  0.968E-01  0.968E-01
 -11.715  0.191E+00  0.218E-14  0.955E-01  0.955E-01
 -11.705  0.187E+00  0.200E-14  0.937E-01  0.937E-01
 -11.695  0.183E+00  0.182E-14  0.915E-01  0.915E-01
 -11.685  0.178E+00  0.166E-14  0.889E-01  0.889E-01
 -11.675  0.172E+00  0.151E-14  0.859E-01  0.859E-01
 -11.665  0.166E+00  0.137E-14  0.828E-01  0.828E-01
 -11.655  0.159E+00  0.126E-14  0.796E-01  0.796E-01
 -11.645  0.153E+00  0.116E-14  0.764E-01  0.764E-01
 -11.635  0.147E+00  0.109E-14  0.733E-01  0.733E-01
 -11.625  0.141E+00  0.103E-14  0.705E-01  0.705E-01
 -11.615  0.136E+00  0.997E-15  0.679E-01  0.679E-01
 -11.605  0.132E+00  0.981E-15  0.658E-01  0.658E-01
 -11.595  0.128E+00  0.984E-15  0.641E-01  0.641E-01
 -11.585  0.126E+00  0.100E-14  0.630E-01  0.630E-01
 -11.575  0.125E+00  0.104E-14  0.624E-01  0.624E-01
 -11.565  0.125E+00  0.108E-14  0.625E-01  0.625E-01
 -11.555  0.127E+00  0.114E-14  0.633E-01  0.633E-01
 -11.545  0.129E+00  0.121E-14  0.647E-01  0.647E-01
 -11.535  0.133E+00  0.128E-14  0.667E-01  0.667E-01
 -11.525  0.139E+00  0.136E-14  0.693E-01  0.693E-01
 -11.515  0.145E+00  0.144E-14  0.725E-01  0.725E-01
 -11.505  0.152E+00  0.152E-14  0.760E-01  0.760E-01
 -11.495  0.160E+00  0.159E-14  0.800E-01  0.800E-01
 -11.485  0.168E+00  0.166E-14  0.841E-01  0.841E-01
 -11.475  0.177E+00  0.173E-14  0.884E-01  0.884E-01
 -11.465  0.185E+00  0.179E-14  0.927E-01  0.927E-01
 -11.455  0.194E+00  0.184E-14  0.968E-01  0.968E-01
 -11.445  0.201E+00  0.188E-14  0.101E+00  0.101E+00
 -11.435  0.208E+00  0.191E-14  0.104E+00  0.104E+00
 -11.425  0.214E+00  0.193E-14  0.107E+00  0.107E+00
 -11.415  0.218E+00  0.194E-14  0.109E+00  0.109E+00
 -11.405  0.221E+00  0.195E-14  0.111E+00  0.111E+00
 -11.395  0.223E+00  0.195E-14  0.111E+00  0.111E+00
 -11.385  0.223E+00  0.194E-14  0.111E+00  0.111E+00
 -11.375  0.221E+00  0.194E-14  0.111E+00  0.111E+00
 -11.365  0.218E+00  0.193E-14  0.109E+00  0.109E+00
 -11.355  0.214E+00  0.192E-14  0.107E+00  0.107E+00
 -11.345  0.208E+00  0.192E-14  0.104E+00  0.104E+00
 -11.335  0.202E+00  0.193E-14  0.101E+00  0.101E+00
 -11.325  0.195E+00  0.194E-14  0.973E-01  0.973E-01
 -11.315  0.187E+00  0.196E-14  0.934E-01  0.934E-01
 -11.305  0.179E+00  0.199E-14  0.894E-01  0.894E-01
 -11.295  0.171E+00  0.203E-14  0.854E-01  0.854E-01
 -11.285  0.163E+00  0.208E-14  0.816E-01  0.816E-01
 -11.275  0.156E+00  0.214E-14  0.780E-01  0.780E-01
 -11.265  0.150E+00  0.221E-14  0.749E-01  0.749E-01
 -11.255  0.144E+00  0.228E-14  0.721E-01  0.721E-01
 -11.245  0.140E+00  0.236E-14  0.700E-01  0.700E-01
 -11.235  0.137E+00  0.243E-14  0.683E-01  0.683E-01
 -11.225  0.135E+00  0.251E-14  0.673E-01  0.673E-01
 -11.215  0.134E+00  0.257E-14  0.669E-01  0.669E-01
 -11.205  0.134E+00  0.263E-14  0.670E-01  0.670E-01
 -11.195  0.135E+00  0.268E-14  0.677E-01  0.677E-01
 -11.185  0.138E+00  0.272E-14  0.688E-01  0.688E-01
 -11.175  0.141E+00  0.274E-14  0.704E-01  0.704E-01
 -11.165  0.145E+00  0.275E-14  0.724E-01  0.724E-01
 -11.155  0.149E+00  0.274E-14  0.746E-01  0.746E-01
 -11.145  0.154E+00  0.272E-14  0.771E-01  0.771E-01
 -11.135  0.159E+00  0.269E-14  0.797E-01  0.797E-01
 -11.125  0.165E+00  0.266E-14  0.824E-01  0.824E-01
 -11.115  0.170E+00  0.262E-14  0.851E-01  0.851E-01
 -11.105  0.176E+00  0.257E-14  0.878E-01  0.878E-01
 -11.095  0.181E+00  0.253E-14  0.904E-01  0.904E-01
 -11.085  0.186E+00  0.249E-14  0.928E-01  0.928E-01
 -11.075  0.190E+00  0.246E-14  0.951E-01  0.951E-01
 -11.065  0.194E+00  0.243E-14  0.972E-01  0.972E-01
 -11.055  0.198E+00  0.242E-14  0.990E-01  0.990E-01
 -11.045  0.201E+00  0.242E-14  0.101E+00  0.101E+00
 -11.035  0.204E+00  0.242E-14  0.102E+00  0.102E+00
 -11.025  0.206E+00  0.244E-14  0.103E+00  0.103E+00
 -11.015  0.207E+00  0.246E-14  0.104E+00  0.104E+00
 -11.005  0.208E+00  0.248E-14  0.104E+00  0.104E+00
 -10.995  0.209E+00  0.251E-14  0.104E+00  0.104E+00
 -10.985  0.208E+00  0.253E-14  0.104E+00  0.104E+00
 -10.975  0.207E+00  0.255E-14  0.104E+00  0.104E+00
 -10.965  0.206E+00  0.255E-14  0.103E+00  0.103E+00
 -10.955  0.204E+00  0.255E-14  0.102E+00  0.102E+00
 -10.945  0.202E+00  0.253E-14  0.101E+00  0.101E+00
 -10.935  0.200E+00  0.249E-14  0.999E-01  0.999E-01
 -10.925  0.197E+00  0.243E-14  0.985E-01  0.985E-01
 -10.915  0.194E+00  0.236E-14  0.972E-01  0.972E-01
 -10.905  0.192E+00  0.227E-14  0.958E-01  0.958E-01
 -10.895  0.189E+00  0.216E-14  0.945E-01  0.945E-01
 -10.885  0.187E+00  0.204E-14  0.934E-01  0.934E-01
 -10.875  0.185E+00  0.191E-14  0.924E-01  0.924E-01
 -10.865  0.183E+00  0.178E-14  0.915E-01  0.915E-01
 -10.855  0.182E+00  0.163E-14  0.909E-01  0.909E-01
 -10.845  0.181E+00  0.149E-14  0.905E-01  0.905E-01
 -10.835  0.181E+00  0.134E-14  0.903E-01  0.903E-01
 -10.825  0.181E+00  0.120E-14  0.903E-01  0.903E-01
 -10.815  0.181E+00  0.106E-14  0.905E-01  0.905E-01
 -10.805  0.181E+00  0.938E-15  0.907E-01  0.907E-01
 -10.795  0.182E+00  0.821E-15  0.910E-01  0.910E-01
 -10.785  0.183E+00  0.715E-15  0.914E-01  0.914E-01
 -10.775  0.183E+00  0.621E-15  0.916E-01  0.916E-01
 -10.765  0.184E+00  0.540E-15  0.918E-01  0.918E-01
 -10.755  0.184E+00  0.472E-15  0.918E-01  0.918E-01
 -10.745  0.183E+00  0.418E-15  0.916E-01  0.916E-01
 -10.735  0.182E+00  0.376E-15  0.912E-01  0.912E-01
 -10.725  0.181E+00  0.346E-15  0.906E-01  0.906E-01
 -10.715  0.180E+00  0.329E-15  0.898E-01  0.898E-01
 -10.705  0.178E+00  0.324E-15  0.889E-01  0.889E-01
 -10.695  0.176E+00  0.330E-15  0.879E-01  0.879E-01
 -10.685  0.174E+00  0.347E-15  0.868E-01  0.868E-01
 -10.675  0.172E+00  0.375E-15  0.858E-01  0.858E-01
 -10.665  0.170E+00  0.413E-15  0.850E-01  0.850E-01
 -10.655  0.169E+00  0.462E-15  0.844E-01  0.844E-01
 -10.645  0.168E+00  0.519E-15  0.841E-01  0.841E-01
 -10.635  0.168E+00  0.585E-15  0.841E-01  0.841E-01
 -10.625  0.169E+00  0.658E-15  0.846E-01  0.846E-01
 -10.615  0.171E+00  0.739E-15  0.854E-01  0.854E-01
 -10.605  0.173E+00  0.825E-15  0.867E-01  0.867E-01
 -10.595  0.177E+00  0.916E-15  0.885E-01  0.885E-01
 -10.585  0.181E+00  0.101E-14  0.906E-01  0.906E-01
 -10.575  0.186E+00  0.110E-14  0.931E-01  0.931E-01
 -10.565  0.192E+00  0.120E-14  0.958E-01  0.958E-01
 -10.555  0.198E+00  0.129E-14  0.988E-01  0.988E-01
 -10.545  0.204E+00  0.138E-14  0.102E+00  0.102E+00
 -10.535  0.210E+00  0.146E-14  0.105E+00  0.105E+00
 -10.525  0.216E+00  0.153E-14  0.108E+00  0.108E+00
 -10.515  0.221E+00  0.160E-14  0.111E+00  0.111E+00
 -10.505  0.226E+00  0.165E-14  0.113E+00  0.113E+00
 -10.495  0.231E+00  0.169E-14  0.115E+00  0.115E+00
 -10.485  0.234E+00  0.172E-14  0.117E+00  0.117E+00
 -10.475  0.237E+00  0.173E-14  0.119E+00  0.119E+00
 -10.465  0.239E+00  0.174E-14  0.119E+00  0.119E+00
 -10.455  0.240E+00  0.173E-14  0.120E+00  0.120E+00
 -10.445  0.240E+00  0.170E-14  0.120E+00  0.120E+00
 -10.435  0.239E+00  0.167E-14  0.119E+00  0.119E+00
 -10.425  0.237E+00  0.163E-14  0.118E+00  0.118E+00
 -10.415  0.234E+00  0.157E-14  0.117E+00  0.117E+00
 -10.405  0.231E+00  0.151E-14  0.115E+00  0.115E+00
 -10.395  0.226E+00  0.145E-14  0.113E+00  0.113E+00
 -10.385  0.222E+00  0.138E-14  0.111E+00  0.111E+00
 -10.375  0.216E+00  0.130E-14  0.108E+00  0.108E+00
 -10.365  0.211E+00  0.123E-14  0.105E+00  0.105E+00
 -10.355  0.205E+00  0.116E-14  0.102E+00  0.102E+00
 -10.345  0.199E+00  0.108E-14  0.995E-01  0.995E-01
 -10.335  0.193E+00  0.101E-14  0.966E-01  0.966E-01
 -10.325  0.188E+00  0.947E-15  0.938E-01  0.938E-01
 -10.315  0.182E+00  0.885E-15  0.911E-01  0.911E-01
 -10.305  0.177E+00  0.828E-15  0.887E-01  0.887E-01
 -10.295  0.173E+00  0.776E-15  0.865E-01  0.865E-01
 -10.285  0.169E+00  0.730E-15  0.847E-01  0.847E-01
 -10.275  0.166E+00  0.690E-15  0.832E-01  0.832E-01
 -10.265  0.164E+00  0.657E-15  0.822E-01  0.822E-01
 -10.255  0.163E+00  0.632E-15  0.816E-01  0.816E-01
 -10.245  0.163E+00  0.614E-15  0.815E-01  0.815E-01
 -10.235  0.164E+00  0.606E-15  0.818E-01  0.818E-01
 -10.225  0.165E+00  0.294E-13  0.827E-01  0.827E-01
 -10.215  0.168E+00  0.147E-12  0.841E-01  0.841E-01
 -10.205  0.172E+00  0.306E-12  0.860E-01  0.860E-01
 -10.195  0.177E+00  0.633E-12  0.884E-01  0.884E-01
 -10.185  0.182E+00  0.129E-11  0.912E-01  0.912E-01
 -10.175  0.189E+00  0.271E-11  0.944E-01  0.944E-01
 -10.165  0.196E+00  0.544E-11  0.980E-01  0.980E-01
 -10.155  0.204E+00  0.109E-10  0.102E+00  0.102E+00
 -10.145  0.212E+00  0.214E-10  0.106E+00  0.106E+00
 -10.135  0.220E+00  0.416E-10  0.110E+00  0.110E+00
 -10.125  0.228E+00  0.800E-10  0.114E+00  0.114E+00
 -10.115  0.236E+00  0.152E-09  0.118E+00  0.118E+00
 -10.105  0.243E+00  0.287E-09  0.121E+00  0.121E+00
 -10.095  0.250E+00  0.534E-09  0.125E+00  0.125E+00
 -10.085  0.256E+00  0.986E-09  0.128E+00  0.128E+00
 -10.075  0.261E+00  0.180E-08  0.130E+00  0.130E+00
 -10.065  0.264E+00  0.325E-08  0.132E+00  0.132E+00
 -10.055  0.267E+00  0.580E-08  0.134E+00  0.134E+00
 -10.045  0.268E+00  0.103E-07  0.134E+00  0.134E+00
 -10.035  0.268E+00  0.180E-07  0.134E+00  0.134E+00
 -10.025  0.267E+00  0.311E-07  0.133E+00  0.133E+00
 -10.015  0.264E+00  0.533E-07  0.132E+00  0.132E+00
 -10.005  0.261E+00  0.903E-07  0.130E+00  0.130E+00
  -9.995  0.256E+00  0.152E-06  0.128E+00  0.128E+00
  -9.985  0.250E+00  0.252E-06  0.125E+00  0.125E+00
  -9.975  0.244E+00  0.414E-06  0.122E+00  0.122E+00
  -9.965  0.238E+00  0.673E-06  0.119E+00  0.119E+00
  -9.955  0.231E+00  0.108E-05  0.115E+00  0.115E+00
  -9.945  0.224E+00  0.173E-05  0.112E+00  0.112E+00
  -9.935  0.218E+00  0.272E-05  0.109E+00  0.109E+00
  -9.925  0.212E+00  0.425E-05  0.106E+00  0.106E+00
  -9.915  0.206E+00  0.656E-05  0.103E+00  0.103E+00
  -9.905  0.202E+00  0.100E-04  0.101E+00  0.101E+00
  -9.895  0.198E+00  0.152E-04  0.990E-01  0.990E-01
  -9.885  0.195E+00  0.227E-04  0.976E-01  0.976E-01
  -9.875  0.194E+00  0.337E-04  0.968E-01  0.968E-01
  -9.865  0.193E+00  0.495E-04  0.965E-01  0.965E-01
  -9.855  0.193E+00  0.719E-04  0.967E-01  0.967E-01
  -9.845  0.195E+00  0.103E-03  0.974E-01  0.974E-01
  -9.835  0.197E+00  0.147E-03  0.985E-01  0.985E-01
  -9.825  0.200E+00  0.207E-03  0.100E+00  0.100E+00
  -9.815  0.204E+00  0.290E-03  0.102E+00  0.102E+00
  -9.805  0.209E+00  0.400E-03  0.104E+00  0.104E+00
  -9.795  0.213E+00  0.547E-03  0.106E+00  0.106E+00
  -9.785  0.218E+00  0.741E-03  0.109E+00  0.109E+00
  -9.775  0.224E+00  0.994E-03  0.111E+00  0.111E+00
  -9.765  0.229E+00  0.132E-02  0.114E+00  0.114E+00
  -9.755  0.235E+00  0.174E-02  0.116E+00  0.116E+00
  -9.745  0.240E+00  0.226E-02  0.119E+00  0.119E+00
  -9.735  0.245E+00  0.292E-02  0.121E+00  0.121E+00
  -9.725  0.250E+00  0.372E-02  0.123E+00  0.123E+00
  -9.715  0.255E+00  0.471E-02  0.125E+00  0.125E+00
  -9.705  0.259E+00  0.591E-02  0.127E+00  0.127E+00
  -9.695  0.264E+00  0.734E-02  0.128E+00  0.128E+00
  -9.685  0.268E+00  0.903E-02  0.130E+00  0.130E+00
  -9.675  0.272E+00  0.110E-01  0.131E+00  0.131E+00
  -9.665  0.276E+00  0.133E-01  0.132E+00  0.132E+00
  -9.655  0.281E+00  0.159E-01  0.132E+00  0.132E+00
  -9.645  0.285E+00  0.189E-01  0.133E+00  0.133E+00
  -9.635  0.289E+00  0.222E-01  0.133E+00  0.133E+00
  -9.625  0.293E+00  0.259E-01  0.134E+00  0.134E+00
  -9.615  0.298E+00  0.300E-01  0.134E+00  0.134E+00
  -9.605  0.302E+00  0.344E-01  0.134E+00  0.134E+00
  -9.595  0.306E+00  0.391E-01  0.134E+00  0.134E+00
  -9.585  0.311E+00  0.441E-01  0.133E+00  0.133E+00
  -9.575  0.315E+00  0.493E-01  0.133E+00  0.133E+00
  -9.565  0.320E+00  0.548E-01  0.133E+00  0.133E+00
  -9.555  0.325E+00  0.604E-01  0.132E+00  0.132E+00
  -9.545  0.329E+00  0.662E-01  0.131E+00  0.131E+00
  -9.535  0.334E+00  0.719E-01  0.131E+00  0.131E+00
  -9.525  0.338E+00  0.777E-01  0.130E+00  0.130E+00
  -9.515  0.343E+00  0.833E-01  0.130E+00  0.130E+00
  -9.505  0.348E+00  0.888E-01  0.130E+00  0.130E+00
  -9.495  0.353E+00  0.941E-01  0.129E+00  0.129E+00
  -9.485  0.358E+00  0.992E-01  0.129E+00  0.129E+00
  -9.475  0.363E+00  0.104E+00  0.129E+00  0.129E+00
  -9.465  0.368E+00  0.108E+00  0.130E+00  0.130E+00
  -9.455  0.373E+00  0.113E+00  0.130E+00  0.130E+00
  -9.445  0.378E+00  0.116E+00  0.131E+00  0.131E+00
  -9.435  0.384E+00  0.120E+00  0.132E+00  0.132E+00
  -9.425  0.389E+00  0.123E+00  0.133E+00  0.133E+00
  -9.415  0.394E+00  0.126E+00  0.134E+00  0.134E+00
  -9.405  0.399E+00  0.128E+00  0.135E+00  0.135E+00
  -9.395  0.403E+00  0.130E+00  0.137E+00  0.137E+00
  -9.385  0.407E+00  0.132E+00  0.138E+00  0.138E+00
  -9.375  0.411E+00  0.133E+00  0.139E+00  0.139E+00
  -9.365  0.414E+00  0.135E+00  0.140E+00  0.140E+00
  -9.355  0.417E+00  0.136E+00  0.141E+00  0.141E+00
  -9.345  0.419E+00  0.137E+00  0.141E+00  0.141E+00
  -9.335  0.421E+00  0.137E+00  0.142E+00  0.142E+00
  -9.325  0.422E+00  0.138E+00  0.142E+00  0.142E+00
  -9.315  0.423E+00  0.138E+00  0.142E+00  0.142E+00
  -9.305  0.424E+00  0.139E+00  0.142E+00  0.142E+00
  -9.295  0.424E+00  0.139E+00  0.143E+00  0.143E+00
  -9.285  0.425E+00  0.139E+00  0.143E+00  0.143E+00
  -9.275  0.425E+00  0.140E+00  0.143E+00  0.143E+00
  -9.265  0.426E+00  0.140E+00  0.143E+00  0.143E+00
  -9.255  0.427E+00  0.140E+00  0.144E+00  0.144E+00
  -9.245  0.429E+00  0.140E+00  0.144E+00  0.144E+00
  -9.235  0.431E+00  0.140E+00  0.146E+00  0.146E+00
  -9.225  0.434E+00  0.140E+00  0.147E+00  0.147E+00
  -9.215  0.438E+00  0.140E+00  0.149E+00  0.149E+00
  -9.205  0.442E+00  0.141E+00  0.151E+00  0.151E+00
  -9.195  0.447E+00  0.141E+00  0.153E+00  0.153E+00
  -9.185  0.452E+00  0.141E+00  0.156E+00  0.156E+00
  -9.175  0.458E+00  0.141E+00  0.159E+00  0.159E+00
  -9.165  0.465E+00  0.141E+00  0.162E+00  0.162E+00
  -9.155  0.471E+00  0.141E+00  0.165E+00  0.165E+00
  -9.145  0.478E+00  0.141E+00  0.169E+00  0.169E+00
  -9.135  0.485E+00  0.141E+00  0.172E+00  0.172E+00
  -9.125  0.492E+00  0.141E+00  0.175E+00  0.175E+00
  -9.115  0.498E+00  0.141E+00  0.179E+00  0.179E+00
  -9.105  0.504E+00  0.141E+00  0.182E+00  0.182E+00
  -9.095  0.510E+00  0.141E+00  0.184E+00  0.184E+00
  -9.085  0.515E+00  0.141E+00  0.187E+00  0.187E+00
  -9.075  0.519E+00  0.142E+00  0.189E+00  0.189E+00
  -9.065  0.523E+00  0.142E+00  0.191E+00  0.191E+00
  -9.055  0.527E+00  0.142E+00  0.192E+00  0.192E+00
  -9.045  0.530E+00  0.142E+00  0.194E+00  0.194E+00
  -9.035  0.533E+00  0.142E+00  0.195E+00  0.195E+00
  -9.025  0.535E+00  0.142E+00  0.197E+00  0.197E+00
  -9.015  0.538E+00  0.142E+00  0.198E+00  0.198E+00
  -9.005  0.540E+00  0.142E+00  0.199E+00  0.199E+00
  -8.995  0.543E+00  0.142E+00  0.200E+00  0.200E+00
  -8.985  0.546E+00  0.142E+00  0.202E+00  0.202E+00
  -8.975  0.549E+00  0.142E+00  0.203E+00  0.203E+00
  -8.965  0.552E+00  0.142E+00  0.205E+00  0.205E+00
  -8.955  0.556E+00  0.142E+00  0.207E+00  0.207E+00
  -8.945  0.560E+00  0.142E+00  0.209E+00  0.209E+00
  -8.935  0.563E+00  0.142E+00  0.211E+00  0.211E+00
  -8.925  0.567E+00  0.142E+00  0.213E+00  0.213E+00
  -8.915  0.571E+00  0.142E+00  0.215E+00  0.215E+00
  -8.905  0.575E+00  0.142E+00  0.216E+00  0.216E+00
  -8.895  0.578E+00  0.142E+00  0.218E+00  0.218E+00
  -8.885  0.580E+00  0.143E+00  0.219E+00  0.219E+00
  -8.875  0.582E+00  0.143E+00  0.219E+00  0.219E+00
  -8.865  0.583E+00  0.144E+00  0.220E+00  0.220E+00
  -8.855  0.583E+00  0.144E+00  0.220E+00  0.220E+00
  -8.845  0.582E+00  0.144E+00  0.219E+00  0.219E+00
  -8.835  0.580E+00  0.144E+00  0.218E+00  0.218E+00
  -8.825  0.577E+00  0.145E+00  0.216E+00  0.216E+00
  -8.815  0.573E+00  0.145E+00  0.214E+00  0.214E+00
  -8.805  0.569E+00  0.144E+00  0.212E+00  0.212E+00
  -8.795  0.563E+00  0.144E+00  0.209E+00  0.209E+00
  -8.785  0.557E+00  0.144E+00  0.206E+00  0.206E+00
  -8.775  0.550E+00  0.144E+00  0.203E+00  0.203E+00
  -8.765  0.542E+00  0.143E+00  0.200E+00  0.200E+00
  -8.755  0.535E+00  0.143E+00  0.196E+00  0.196E+00
  -8.745  0.527E+00  0.142E+00  0.192E+00  0.192E+00
  -8.735  0.520E+00  0.142E+00  0.189E+00  0.189E+00
  -8.725  0.512E+00  0.142E+00  0.185E+00  0.185E+00
  -8.715  0.505E+00  0.142E+00  0.182E+00  0.182E+00
  -8.705  0.498E+00  0.142E+00  0.178E+00  0.178E+00
  -8.695  0.492E+00  0.143E+00  0.175E+00  0.175E+00
  -8.685  0.486E+00  0.143E+00  0.172E+00  0.172E+00
  -8.675  0.481E+00  0.144E+00  0.169E+00  0.169E+00
  -8.665  0.476E+00  0.144E+00  0.166E+00  0.166E+00
  -8.655  0.472E+00  0.145E+00  0.164E+00  0.164E+00
  -8.645  0.469E+00  0.146E+00  0.161E+00  0.161E+00
  -8.635  0.466E+00  0.147E+00  0.159E+00  0.159E+00
  -8.625  0.463E+00  0.147E+00  0.158E+00  0.158E+00
  -8.615  0.461E+00  0.148E+00  0.156E+00  0.156E+00
  -8.605  0.459E+00  0.148E+00  0.155E+00  0.155E+00
  -8.595  0.457E+00  0.148E+00  0.155E+00  0.155E+00
  -8.585  0.456E+00  0.148E+00  0.154E+00  0.154E+00
  -8.575  0.455E+00  0.147E+00  0.154E+00  0.154E+00
  -8.565  0.454E+00  0.147E+00  0.154E+00  0.154E+00
  -8.555  0.454E+00  0.146E+00  0.154E+00  0.154E+00
  -8.545  0.453E+00  0.145E+00  0.154E+00  0.154E+00
  -8.535  0.453E+00  0.144E+00  0.154E+00  0.154E+00
  -8.525  0.452E+00  0.143E+00  0.154E+00  0.154E+00
  -8.515  0.452E+00  0.143E+00  0.154E+00  0.154E+00
  -8.505  0.451E+00  0.142E+00  0.154E+00  0.154E+00
  -8.495  0.450E+00  0.142E+00  0.154E+00  0.154E+00
  -8.485  0.449E+00  0.142E+00  0.154E+00  0.154E+00
  -8.475  0.447E+00  0.142E+00  0.153E+00  0.153E+00
  -8.465  0.446E+00  0.142E+00  0.152E+00  0.152E+00
  -8.455  0.444E+00  0.143E+00  0.151E+00  0.151E+00
  -8.445  0.442E+00  0.144E+00  0.149E+00  0.149E+00
  -8.435  0.439E+00  0.145E+00  0.147E+00  0.147E+00
  -8.425  0.436E+00  0.146E+00  0.145E+00  0.145E+00
  -8.415  0.432E+00  0.148E+00  0.142E+00  0.142E+00
  -8.405  0.429E+00  0.149E+00  0.140E+00  0.140E+00
  -8.395  0.425E+00  0.150E+00  0.137E+00  0.137E+00
  -8.385  0.420E+00  0.151E+00  0.135E+00  0.135E+00
  -8.375  0.415E+00  0.152E+00  0.132E+00  0.132E+00
  -8.365  0.410E+00  0.152E+00  0.129E+00  0.129E+00
  -8.355  0.405E+00  0.153E+00  0.126E+00  0.126E+00
  -8.345  0.400E+00  0.152E+00  0.124E+00  0.124E+00
  -8.335  0.395E+00  0.152E+00  0.121E+00  0.121E+00
  -8.325  0.389E+00  0.151E+00  0.119E+00  0.119E+00
  -8.315  0.384E+00  0.150E+00  0.117E+00  0.117E+00
  -8.305  0.380E+00  0.149E+00  0.115E+00  0.115E+00
  -8.295  0.375E+00  0.147E+00  0.114E+00  0.114E+00
  -8.285  0.372E+00  0.146E+00  0.113E+00  0.113E+00
  -8.275  0.369E+00  0.145E+00  0.112E+00  0.112E+00
  -8.265  0.367E+00  0.143E+00  0.112E+00  0.112E+00
  -8.255  0.365E+00  0.142E+00  0.112E+00  0.112E+00
  -8.245  0.365E+00  0.141E+00  0.112E+00  0.112E+00
  -8.235  0.366E+00  0.141E+00  0.112E+00  0.112E+00
  -8.225  0.367E+00  0.141E+00  0.113E+00  0.113E+00
  -8.215  0.370E+00  0.141E+00  0.115E+00  0.115E+00
  -8.205  0.374E+00  0.142E+00  0.116E+00  0.116E+00
  -8.195  0.378E+00  0.143E+00  0.118E+00  0.118E+00
  -8.185  0.383E+00  0.144E+00  0.119E+00  0.119E+00
  -8.175  0.388E+00  0.146E+00  0.121E+00  0.121E+00
  -8.165  0.393E+00  0.147E+00  0.123E+00  0.123E+00
  -8.155  0.399E+00  0.149E+00  0.125E+00  0.125E+00
  -8.145  0.404E+00  0.151E+00  0.126E+00  0.126E+00
  -8.135  0.408E+00  0.153E+00  0.127E+00  0.127E+00
  -8.125  0.411E+00  0.155E+00  0.128E+00  0.128E+00
  -8.115  0.414E+00  0.156E+00  0.129E+00  0.129E+00
  -8.105  0.415E+00  0.157E+00  0.129E+00  0.129E+00
  -8.095  0.416E+00  0.158E+00  0.129E+00  0.129E+00
  -8.085  0.415E+00  0.158E+00  0.128E+00  0.128E+00
  -8.075  0.413E+00  0.158E+00  0.127E+00  0.127E+00
  -8.065  0.409E+00  0.157E+00  0.126E+00  0.126E+00
  -8.055  0.405E+00  0.156E+00  0.124E+00  0.124E+00
  -8.045  0.400E+00  0.155E+00  0.122E+00  0.122E+00
  -8.035  0.394E+00  0.153E+00  0.120E+00  0.120E+00
  -8.025  0.387E+00  0.151E+00  0.118E+00  0.118E+00
  -8.015  0.380E+00  0.149E+00  0.116E+00  0.116E+00
  -8.005  0.374E+00  0.147E+00  0.113E+00  0.113E+00
  -7.995  0.367E+00  0.145E+00  0.111E+00  0.111E+00
  -7.985  0.361E+00  0.143E+00  0.109E+00  0.109E+00
  -7.975  0.356E+00  0.142E+00  0.107E+00  0.107E+00
  -7.965  0.351E+00  0.141E+00  0.105E+00  0.105E+00
  -7.955  0.347E+00  0.140E+00  0.104E+00  0.104E+00
  -7.945  0.344E+00  0.140E+00  0.102E+00  0.102E+00
  -7.935  0.342E+00  0.140E+00  0.101E+00  0.101E+00
  -7.925  0.341E+00  0.141E+00  0.100E+00  0.100E+00
  -7.915  0.341E+00  0.142E+00  0.994E-01  0.994E-01
  -7.905  0.341E+00  0.143E+00  0.987E-01  0.987E-01
  -7.895  0.342E+00  0.145E+00  0.982E-01  0.982E-01
  -7.885  0.343E+00  0.148E+00  0.978E-01  0.978E-01
  -7.875  0.345E+00  0.150E+00  0.974E-01  0.974E-01
  -7.865  0.347E+00  0.153E+00  0.971E-01  0.971E-01
  -7.855  0.349E+00  0.155E+00  0.968E-01  0.968E-01
  -7.845  0.351E+00  0.157E+00  0.966E-01  0.966E-01
  -7.835  0.352E+00  0.160E+00  0.964E-01  0.964E-01
  -7.825  0.354E+00  0.161E+00  0.962E-01  0.962E-01
  -7.815  0.355E+00  0.163E+00  0.962E-01  0.962E-01
  -7.805  0.356E+00  0.164E+00  0.962E-01  0.962E-01
  -7.795  0.357E+00  0.164E+00  0.963E-01  0.963E-01
  -7.785  0.357E+00  0.164E+00  0.966E-01  0.966E-01
  -7.775  0.357E+00  0.163E+00  0.971E-01  0.971E-01
  -7.765  0.357E+00  0.162E+00  0.977E-01  0.977E-01
  -7.755  0.357E+00  0.160E+00  0.984E-01  0.984E-01
  -7.745  0.357E+00  0.158E+00  0.994E-01  0.994E-01
  -7.735  0.357E+00  0.156E+00  0.100E+00  0.100E+00
  -7.725  0.357E+00  0.154E+00  0.102E+00  0.102E+00
  -7.715  0.357E+00  0.151E+00  0.103E+00  0.103E+00
  -7.705  0.357E+00  0.149E+00  0.104E+00  0.104E+00
  -7.695  0.356E+00  0.147E+00  0.105E+00  0.105E+00
  -7.685  0.356E+00  0.144E+00  0.106E+00  0.106E+00
  -7.675  0.356E+00  0.143E+00  0.107E+00  0.107E+00
  -7.665  0.355E+00  0.141E+00  0.107E+00  0.107E+00
  -7.655  0.355E+00  0.140E+00  0.107E+00  0.107E+00
  -7.645  0.354E+00  0.140E+00  0.107E+00  0.107E+00
  -7.635  0.353E+00  0.140E+00  0.107E+00  0.107E+00
  -7.625  0.351E+00  0.140E+00  0.106E+00  0.106E+00
  -7.615  0.350E+00  0.141E+00  0.104E+00  0.104E+00
  -7.605  0.348E+00  0.142E+00  0.103E+00  0.103E+00
  -7.595  0.346E+00  0.144E+00  0.101E+00  0.101E+00
  -7.585  0.344E+00  0.147E+00  0.989E-01  0.989E-01
  -7.575  0.343E+00  0.149E+00  0.967E-01  0.967E-01
  -7.565  0.341E+00  0.152E+00  0.944E-01  0.944E-01
  -7.555  0.340E+00  0.155E+00  0.922E-01  0.922E-01
  -7.545  0.338E+00  0.158E+00  0.901E-01  0.901E-01
  -7.535  0.337E+00  0.161E+00  0.881E-01  0.881E-01
  -7.525  0.337E+00  0.164E+00  0.865E-01  0.865E-01
  -7.515  0.336E+00  0.166E+00  0.851E-01  0.851E-01
  -7.505  0.336E+00  0.168E+00  0.841E-01  0.841E-01
  -7.495  0.337E+00  0.169E+00  0.835E-01  0.835E-01
  -7.485  0.337E+00  0.170E+00  0.833E-01  0.833E-01
  -7.475  0.338E+00  0.171E+00  0.835E-01  0.835E-01
  -7.465  0.338E+00  0.170E+00  0.840E-01  0.840E-01
  -7.455  0.339E+00  0.169E+00  0.848E-01  0.848E-01
  -7.445  0.339E+00  0.168E+00  0.858E-01  0.858E-01
  -7.435  0.340E+00  0.166E+00  0.869E-01  0.869E-01
  -7.425  0.340E+00  0.163E+00  0.881E-01  0.881E-01
  -7.415  0.339E+00  0.161E+00  0.893E-01  0.893E-01
  -7.405  0.339E+00  0.158E+00  0.904E-01  0.904E-01
  -7.395  0.337E+00  0.155E+00  0.913E-01  0.913E-01
  -7.385  0.336E+00  0.152E+00  0.919E-01  0.919E-01
  -7.375  0.333E+00  0.149E+00  0.922E-01  0.922E-01
  -7.365  0.331E+00  0.146E+00  0.922E-01  0.922E-01
  -7.355  0.328E+00  0.144E+00  0.919E-01  0.919E-01
  -7.345  0.325E+00  0.142E+00  0.912E-01  0.912E-01
  -7.335  0.321E+00  0.141E+00  0.903E-01  0.903E-01
  -7.325  0.318E+00  0.140E+00  0.891E-01  0.891E-01
  -7.315  0.315E+00  0.140E+00  0.876E-01  0.876E-01
  -7.305  0.312E+00  0.140E+00  0.861E-01  0.861E-01
  -7.295  0.310E+00  0.141E+00  0.845E-01  0.845E-01
  -7.285  0.308E+00  0.142E+00  0.830E-01  0.830E-01
  -7.275  0.307E+00  0.144E+00  0.816E-01  0.816E-01
  -7.265  0.307E+00  0.146E+00  0.805E-01  0.805E-01
  -7.255  0.308E+00  0.149E+00  0.795E-01  0.795E-01
  -7.245  0.310E+00  0.152E+00  0.790E-01  0.790E-01
  -7.235  0.312E+00  0.155E+00  0.788E-01  0.788E-01
  -7.225  0.316E+00  0.158E+00  0.789E-01  0.789E-01
  -7.215  0.320E+00  0.161E+00  0.794E-01  0.794E-01
  -7.205  0.325E+00  0.165E+00  0.803E-01  0.803E-01
  -7.195  0.331E+00  0.168E+00  0.815E-01  0.815E-01
  -7.185  0.336E+00  0.170E+00  0.829E-01  0.829E-01
  -7.175  0.342E+00  0.173E+00  0.844E-01  0.844E-01
  -7.165  0.347E+00  0.175E+00  0.860E-01  0.860E-01
  -7.155  0.351E+00  0.176E+00  0.876E-01  0.876E-01
  -7.145  0.355E+00  0.177E+00  0.890E-01  0.890E-01
  -7.135  0.358E+00  0.177E+00  0.902E-01  0.902E-01
  -7.125  0.359E+00  0.177E+00  0.911E-01  0.911E-01
  -7.115  0.359E+00  0.176E+00  0.917E-01  0.917E-01
  -7.105  0.358E+00  0.174E+00  0.917E-01  0.917E-01
  -7.095  0.355E+00  0.172E+00  0.914E-01  0.914E-01
  -7.085  0.351E+00  0.170E+00  0.905E-01  0.905E-01
  -7.075  0.346E+00  0.167E+00  0.893E-01  0.893E-01
  -7.065  0.339E+00  0.164E+00  0.876E-01  0.876E-01
  -7.055  0.332E+00  0.161E+00  0.855E-01  0.855E-01
  -7.045  0.324E+00  0.157E+00  0.832E-01  0.832E-01
  -7.035  0.315E+00  0.154E+00  0.807E-01  0.807E-01
  -7.025  0.307E+00  0.150E+00  0.782E-01  0.782E-01
  -7.015  0.299E+00  0.147E+00  0.756E-01  0.756E-01
  -7.005  0.291E+00  0.145E+00  0.732E-01  0.732E-01
  -6.995  0.285E+00  0.143E+00  0.710E-01  0.710E-01
  -6.985  0.279E+00  0.141E+00  0.691E-01  0.691E-01
  -6.975  0.275E+00  0.140E+00  0.676E-01  0.676E-01
  -6.965  0.273E+00  0.140E+00  0.666E-01  0.666E-01
  -6.955  0.272E+00  0.140E+00  0.660E-01  0.660E-01
  -6.945  0.273E+00  0.141E+00  0.660E-01  0.660E-01
  -6.935  0.276E+00  0.143E+00  0.664E-01  0.664E-01
  -6.925  0.280E+00  0.145E+00  0.673E-01  0.673E-01
  -6.915  0.285E+00  0.148E+00  0.686E-01  0.686E-01
  -6.905  0.291E+00  0.151E+00  0.702E-01  0.702E-01
  -6.895  0.299E+00  0.155E+00  0.720E-01  0.720E-01
  -6.885  0.306E+00  0.158E+00  0.741E-01  0.741E-01
  -6.875  0.314E+00  0.162E+00  0.761E-01  0.761E-01
  -6.865  0.322E+00  0.166E+00  0.782E-01  0.782E-01
  -6.855  0.330E+00  0.170E+00  0.800E-01  0.800E-01
  -6.845  0.336E+00  0.173E+00  0.817E-01  0.817E-01
  -6.835  0.342E+00  0.176E+00  0.830E-01  0.830E-01
  -6.825  0.347E+00  0.179E+00  0.839E-01  0.839E-01
  -6.815  0.350E+00  0.181E+00  0.845E-01  0.845E-01
  -6.805  0.352E+00  0.183E+00  0.846E-01  0.846E-01
  -6.795  0.352E+00  0.184E+00  0.842E-01  0.842E-01
  -6.785  0.351E+00  0.184E+00  0.835E-01  0.835E-01
  -6.775  0.349E+00  0.184E+00  0.824E-01  0.824E-01
  -6.765  0.346E+00  0.184E+00  0.810E-01  0.810E-01
  -6.755  0.341E+00  0.183E+00  0.794E-01  0.794E-01
  -6.745  0.336E+00  0.181E+00  0.776E-01  0.776E-01
  -6.735  0.330E+00  0.179E+00  0.758E-01  0.758E-01
  -6.725  0.324E+00  0.176E+00  0.739E-01  0.739E-01
  -6.715  0.318E+00  0.173E+00  0.722E-01  0.722E-01
  -6.705  0.311E+00  0.170E+00  0.706E-01  0.706E-01
  -6.695  0.305E+00  0.167E+00  0.693E-01  0.693E-01
  -6.685  0.300E+00  0.163E+00  0.682E-01  0.682E-01
  -6.675  0.295E+00  0.160E+00  0.673E-01  0.673E-01
  -6.665  0.290E+00  0.157E+00  0.668E-01  0.668E-01
  -6.655  0.286E+00  0.153E+00  0.665E-01  0.665E-01
  -6.645  0.283E+00  0.150E+00  0.664E-01  0.664E-01
  -6.635  0.281E+00  0.148E+00  0.666E-01  0.666E-01
  -6.625  0.279E+00  0.146E+00  0.669E-01  0.669E-01
  -6.615  0.279E+00  0.144E+00  0.673E-01  0.673E-01
  -6.605  0.278E+00  0.143E+00  0.678E-01  0.678E-01
  -6.595  0.279E+00  0.142E+00  0.683E-01  0.683E-01
  -6.585  0.280E+00  0.143E+00  0.688E-01  0.688E-01
  -6.575  0.282E+00  0.144E+00  0.693E-01  0.693E-01
  -6.565  0.285E+00  0.145E+00  0.697E-01  0.697E-01
  -6.555  0.287E+00  0.147E+00  0.700E-01  0.700E-01
  -6.545  0.291E+00  0.150E+00  0.702E-01  0.702E-01
  -6.535  0.294E+00  0.154E+00  0.703E-01  0.703E-01
  -6.525  0.298E+00  0.158E+00  0.703E-01  0.703E-01
  -6.515  0.303E+00  0.162E+00  0.703E-01  0.703E-01
  -6.505  0.307E+00  0.167E+00  0.702E-01  0.702E-01
  -6.495  0.311E+00  0.171E+00  0.701E-01  0.701E-01
  -6.485  0.316E+00  0.176E+00  0.700E-01  0.700E-01
  -6.475  0.320E+00  0.180E+00  0.699E-01  0.699E-01
  -6.465  0.323E+00  0.184E+00  0.698E-01  0.698E-01
  -6.455  0.326E+00  0.187E+00  0.696E-01  0.696E-01
  -6.445  0.329E+00  0.190E+00  0.695E-01  0.695E-01
  -6.435  0.331E+00  0.192E+00  0.693E-01  0.693E-01
  -6.425  0.332E+00  0.194E+00  0.691E-01  0.691E-01
  -6.415  0.333E+00  0.195E+00  0.689E-01  0.689E-01
  -6.405  0.332E+00  0.195E+00  0.687E-01  0.687E-01
  -6.395  0.331E+00  0.194E+00  0.684E-01  0.684E-01
  -6.385  0.329E+00  0.193E+00  0.680E-01  0.680E-01
  -6.375  0.326E+00  0.191E+00  0.676E-01  0.676E-01
  -6.365  0.323E+00  0.189E+00  0.671E-01  0.671E-01
  -6.355  0.320E+00  0.186E+00  0.666E-01  0.666E-01
  -6.345  0.315E+00  0.183E+00  0.660E-01  0.660E-01
  -6.335  0.311E+00  0.180E+00  0.655E-01  0.655E-01
  -6.325  0.307E+00  0.177E+00  0.650E-01  0.650E-01
  -6.315  0.302E+00  0.173E+00  0.645E-01  0.645E-01
  -6.305  0.298E+00  0.170E+00  0.641E-01  0.641E-01
  -6.295  0.294E+00  0.166E+00  0.638E-01  0.638E-01
  -6.285  0.290E+00  0.163E+00  0.635E-01  0.635E-01
  -6.275  0.286E+00  0.159E+00  0.634E-01  0.634E-01
  -6.265  0.283E+00  0.157E+00  0.633E-01  0.633E-01
  -6.255  0.281E+00  0.154E+00  0.633E-01  0.633E-01
  -6.245  0.278E+00  0.152E+00  0.633E-01  0.633E-01
  -6.235  0.277E+00  0.150E+00  0.634E-01  0.634E-01
  -6.225  0.276E+00  0.149E+00  0.635E-01  0.635E-01
  -6.215  0.275E+00  0.148E+00  0.637E-01  0.637E-01
  -6.205  0.276E+00  0.148E+00  0.637E-01  0.637E-01
  -6.195  0.276E+00  0.149E+00  0.638E-01  0.638E-01
  -6.185  0.277E+00  0.150E+00  0.637E-01  0.637E-01
  -6.175  0.279E+00  0.152E+00  0.636E-01  0.636E-01
  -6.165  0.281E+00  0.154E+00  0.634E-01  0.634E-01
  -6.155  0.284E+00  0.157E+00  0.631E-01  0.631E-01
  -6.145  0.287E+00  0.161E+00  0.627E-01  0.627E-01
  -6.135  0.290E+00  0.165E+00  0.622E-01  0.622E-01
  -6.125  0.293E+00  0.170E+00  0.615E-01  0.615E-01
  -6.115  0.297E+00  0.175E+00  0.608E-01  0.608E-01
  -6.105  0.300E+00  0.180E+00  0.600E-01  0.600E-01
  -6.095  0.303E+00  0.185E+00  0.590E-01  0.590E-01
  -6.085  0.306E+00  0.190E+00  0.580E-01  0.580E-01
  -6.075  0.308E+00  0.194E+00  0.568E-01  0.568E-01
  -6.065  0.310E+00  0.198E+00  0.556E-01  0.556E-01
  -6.055  0.310E+00  0.202E+00  0.542E-01  0.542E-01
  -6.045  0.310E+00  0.205E+00  0.527E-01  0.527E-01
  -6.035  0.309E+00  0.207E+00  0.511E-01  0.511E-01
  -6.025  0.307E+00  0.208E+00  0.494E-01  0.494E-01
  -6.015  0.304E+00  0.209E+00  0.475E-01  0.475E-01
  -6.005  0.299E+00  0.208E+00  0.455E-01  0.455E-01
  -5.995  0.294E+00  0.207E+00  0.434E-01  0.434E-01
  -5.985  0.288E+00  0.206E+00  0.412E-01  0.412E-01
  -5.975  0.281E+00  0.203E+00  0.389E-01  0.389E-01
  -5.965  0.273E+00  0.200E+00  0.364E-01  0.364E-01
  -5.955  0.265E+00  0.197E+00  0.340E-01  0.340E-01
  -5.945  0.256E+00  0.193E+00  0.315E-01  0.315E-01
  -5.935  0.247E+00  0.189E+00  0.289E-01  0.289E-01
  -5.925  0.238E+00  0.185E+00  0.264E-01  0.264E-01
  -5.915  0.229E+00  0.181E+00  0.239E-01  0.239E-01
  -5.905  0.221E+00  0.178E+00  0.215E-01  0.215E-01
  -5.895  0.212E+00  0.174E+00  0.192E-01  0.192E-01
  -5.885  0.204E+00  0.170E+00  0.170E-01  0.170E-01
  -5.875  0.197E+00  0.167E+00  0.150E-01  0.150E-01
  -5.865  0.190E+00  0.164E+00  0.130E-01  0.130E-01
  -5.855  0.184E+00  0.162E+00  0.113E-01  0.113E-01
  -5.845  0.179E+00  0.160E+00  0.964E-02  0.964E-02
  -5.835  0.175E+00  0.158E+00  0.818E-02  0.818E-02
  -5.825  0.171E+00  0.157E+00  0.689E-02  0.689E-02
  -5.815  0.168E+00  0.157E+00  0.574E-02  0.574E-02
  -5.805  0.167E+00  0.157E+00  0.475E-02  0.475E-02
  -5.795  0.166E+00  0.158E+00  0.389E-02  0.389E-02
  -5.785  0.166E+00  0.160E+00  0.316E-02  0.316E-02
  -5.775  0.167E+00  0.162E+00  0.254E-02  0.254E-02
  -5.765  0.169E+00  0.165E+00  0.202E-02  0.202E-02
  -5.755  0.172E+00  0.169E+00  0.160E-02  0.160E-02
  -5.745  0.175E+00  0.173E+00  0.125E-02  0.125E-02
  -5.735  0.180E+00  0.178E+00  0.968E-03  0.968E-03
  -5.725  0.184E+00  0.183E+00  0.743E-03  0.743E-03
  -5.715  0.190E+00  0.188E+00  0.565E-03  0.565E-03
  -5.705  0.195E+00  0.194E+00  0.425E-03  0.425E-03
  -5.695  0.200E+00  0.200E+00  0.317E-03  0.317E-03
  -5.685  0.206E+00  0.205E+00  0.234E-03  0.234E-03
  -5.675  0.211E+00  0.211E+00  0.171E-03  0.171E-03
  -5.665  0.216E+00  0.215E+00  0.124E-03  0.124E-03
  -5.655  0.220E+00  0.220E+00  0.890E-04  0.890E-04
  -5.645  0.224E+00  0.223E+00  0.632E-04  0.632E-04
  -5.635  0.226E+00  0.226E+00  0.444E-04  0.444E-04
  -5.625  0.228E+00  0.228E+00  0.309E-04  0.309E-04
  -5.615  0.230E+00  0.229E+00  0.213E-04  0.213E-04
  -5.605  0.230E+00  0.230E+00  0.146E-04  0.146E-04
  -5.595  0.229E+00  0.229E+00  0.984E-05  0.984E-05
  -5.585  0.228E+00  0.228E+00  0.658E-05  0.658E-05
  -5.575  0.226E+00  0.226E+00  0.436E-05  0.436E-05
  -5.565  0.223E+00  0.223E+00  0.286E-05  0.286E-05
  -5.555  0.220E+00  0.220E+00  0.186E-05  0.186E-05
  -5.545  0.217E+00  0.217E+00  0.119E-05  0.119E-05
  -5.535  0.213E+00  0.213E+00  0.758E-06  0.758E-06
  -5.525  0.208E+00  0.208E+00  0.477E-06  0.477E-06
  -5.515  0.204E+00  0.204E+00  0.298E-06  0.298E-06
  -5.505  0.200E+00  0.200E+00  0.184E-06  0.184E-06
  -5.495  0.196E+00  0.196E+00  0.112E-06  0.112E-06
  -5.485  0.192E+00  0.192E+00  0.677E-07  0.677E-07
  -5.475  0.188E+00  0.188E+00  0.405E-07  0.405E-07
  -5.465  0.185E+00  0.185E+00  0.240E-07  0.240E-07
  -5.455  0.182E+00  0.182E+00  0.141E-07  0.141E-07
  -5.445  0.179E+00  0.179E+00  0.816E-08  0.816E-08
  -5.435  0.178E+00  0.178E+00  0.468E-08  0.468E-08
  -5.425  0.176E+00  0.176E+00  0.266E-08  0.266E-08
  -5.415  0.176E+00  0.176E+00  0.150E-08  0.150E-08
  -5.405  0.176E+00  0.176E+00  0.832E-09  0.832E-09
  -5.395  0.177E+00  0.177E+00  0.458E-09  0.458E-09
  -5.385  0.179E+00  0.179E+00  0.250E-09  0.250E-09
  -5.375  0.181E+00  0.181E+00  0.135E-09  0.135E-09
  -5.365  0.185E+00  0.185E+00  0.719E-10  0.719E-10
  -5.355  0.189E+00  0.189E+00  0.380E-10  0.380E-10
  -5.345  0.194E+00  0.194E+00  0.199E-10  0.199E-10
  -5.335  0.200E+00  0.200E+00  0.103E-10  0.103E-10
  -5.325  0.206E+00  0.206E+00  0.529E-11  0.529E-11
  -5.315  0.213E+00  0.213E+00  0.266E-11  0.266E-11
  -5.305  0.221E+00  0.221E+00  0.136E-11  0.136E-11
  -5.295  0.228E+00  0.228E+00  0.697E-12  0.697E-12
  -5.285  0.236E+00  0.236E+00  0.366E-12  0.366E-12
  -5.275  0.243E+00  0.243E+00  0.174E-12  0.174E-12
  -5.265  0.251E+00  0.251E+00  0.111E-12  0.111E-12
  -5.255  0.258E+00  0.258E+00  0.820E-13  0.820E-13
  -5.245  0.264E+00  0.264E+00  0.552E-13  0.552E-13
  -5.235  0.270E+00  0.270E+00  0.575E-13  0.575E-13
  -5.225  0.275E+00  0.275E+00  0.596E-13  0.596E-13
  -5.215  0.279E+00  0.279E+00  0.615E-13  0.615E-13
  -5.205  0.282E+00  0.282E+00  0.631E-13  0.631E-13
  -5.195  0.285E+00  0.285E+00  0.645E-13  0.645E-13
  -5.185  0.286E+00  0.286E+00  0.657E-13  0.657E-13
  -5.175  0.287E+00  0.287E+00  0.665E-13  0.665E-13
  -5.165  0.287E+00  0.287E+00  0.671E-13  0.671E-13
  -5.155  0.286E+00  0.286E+00  0.675E-13  0.675E-13
  -5.145  0.285E+00  0.285E+00  0.675E-13  0.675E-13
  -5.135  0.283E+00  0.283E+00  0.674E-13  0.674E-13
  -5.125  0.280E+00  0.280E+00  0.670E-13  0.670E-13
  -5.115  0.278E+00  0.278E+00  0.665E-13  0.665E-13
  -5.105  0.275E+00  0.275E+00  0.658E-13  0.658E-13
  -5.095  0.272E+00  0.272E+00  0.650E-13  0.650E-13
  -5.085  0.269E+00  0.269E+00  0.642E-13  0.642E-13
  -5.075  0.266E+00  0.266E+00  0.633E-13  0.633E-13
  -5.065  0.264E+00  0.264E+00  0.624E-13  0.624E-13
  -5.055  0.261E+00  0.261E+00  0.616E-13  0.616E-13
  -5.045  0.259E+00  0.259E+00  0.609E-13  0.609E-13
  -5.035  0.258E+00  0.258E+00  0.604E-13  0.604E-13
  -5.025  0.257E+00  0.257E+00  0.600E-13  0.600E-13
  -5.015  0.257E+00  0.257E+00  0.599E-13  0.599E-13
  -5.005  0.257E+00  0.257E+00  0.601E-13  0.601E-13
  -4.995  0.259E+00  0.259E+00  0.605E-13  0.605E-13
  -4.985  0.261E+00  0.261E+00  0.612E-13  0.612E-13
  -4.975  0.264E+00  0.264E+00  0.622E-13  0.622E-13
  -4.965  0.267E+00  0.267E+00  0.636E-13  0.636E-13
  -4.955  0.272E+00  0.272E+00  0.653E-13  0.653E-13
  -4.945  0.277E+00  0.277E+00  0.672E-13  0.672E-13
  -4.935  0.283E+00  0.283E+00  0.694E-13  0.694E-13
  -4.925  0.290E+00  0.290E+00  0.717E-13  0.717E-13
  -4.915  0.297E+00  0.297E+00  0.742E-13  0.742E-13
  -4.905  0.304E+00  0.304E+00  0.767E-13  0.767E-13
  -4.895  0.311E+00  0.311E+00  0.792E-13  0.792E-13
  -4.885  0.317E+00  0.317E+00  0.816E-13  0.816E-13
  -4.875  0.322E+00  0.322E+00  0.837E-13  0.837E-13
  -4.865  0.327E+00  0.327E+00  0.855E-13  0.855E-13
  -4.855  0.330E+00  0.330E+00  0.869E-13  0.869E-13
  -4.845  0.332E+00  0.332E+00  0.879E-13  0.879E-13
  -4.835  0.332E+00  0.332E+00  0.883E-13  0.883E-13
  -4.825  0.329E+00  0.329E+00  0.881E-13  0.881E-13
  -4.815  0.325E+00  0.325E+00  0.872E-13  0.872E-13
  -4.805  0.319E+00  0.319E+00  0.858E-13  0.858E-13
  -4.795  0.311E+00  0.311E+00  0.837E-13  0.837E-13
  -4.785  0.301E+00  0.301E+00  0.811E-13  0.811E-13
  -4.775  0.290E+00  0.290E+00  0.780E-13  0.780E-13
  -4.765  0.277E+00  0.277E+00  0.744E-13  0.744E-13
  -4.755  0.264E+00  0.264E+00  0.705E-13  0.705E-13
  -4.745  0.249E+00  0.249E+00  0.663E-13  0.663E-13
  -4.735  0.235E+00  0.235E+00  0.619E-13  0.619E-13
  -4.725  0.220E+00  0.220E+00  0.575E-13  0.575E-13
  -4.715  0.206E+00  0.206E+00  0.531E-13  0.531E-13
  -4.705  0.193E+00  0.193E+00  0.489E-13  0.489E-13
  -4.695  0.180E+00  0.180E+00  0.449E-13  0.449E-13
  -4.685  0.169E+00  0.169E+00  0.411E-13  0.411E-13
  -4.675  0.159E+00  0.159E+00  0.378E-13  0.378E-13
  -4.665  0.151E+00  0.151E+00  0.348E-13  0.348E-13
  -4.655  0.144E+00  0.144E+00  0.322E-13  0.322E-13
  -4.645  0.139E+00  0.139E+00  0.302E-13  0.302E-13
  -4.635  0.135E+00  0.135E+00  0.285E-13  0.285E-13
  -4.625  0.133E+00  0.133E+00  0.274E-13  0.274E-13
  -4.615  0.133E+00  0.133E+00  0.267E-13  0.267E-13
  -4.605  0.134E+00  0.134E+00  0.265E-13  0.265E-13
  -4.595  0.136E+00  0.136E+00  0.266E-13  0.266E-13
  -4.585  0.139E+00  0.139E+00  0.271E-13  0.271E-13
  -4.575  0.143E+00  0.143E+00  0.280E-13  0.280E-13
  -4.565  0.147E+00  0.147E+00  0.291E-13  0.291E-13
  -4.555  0.153E+00  0.153E+00  0.305E-13  0.305E-13
  -4.545  0.158E+00  0.158E+00  0.320E-13  0.320E-13
  -4.535  0.164E+00  0.164E+00  0.337E-13  0.337E-13
  -4.525  0.169E+00  0.169E+00  0.354E-13  0.354E-13
  -4.515  0.175E+00  0.175E+00  0.371E-13  0.371E-13
  -4.505  0.179E+00  0.179E+00  0.388E-13  0.388E-13
  -4.495  0.184E+00  0.184E+00  0.404E-13  0.404E-13
  -4.485  0.187E+00  0.187E+00  0.419E-13  0.419E-13
  -4.475  0.190E+00  0.190E+00  0.432E-13  0.432E-13
  -4.465  0.191E+00  0.191E+00  0.443E-13  0.443E-13
  -4.455  0.192E+00  0.192E+00  0.453E-13  0.453E-13
  -4.445  0.191E+00  0.191E+00  0.460E-13  0.460E-13
  -4.435  0.189E+00  0.189E+00  0.466E-13  0.466E-13
  -4.425  0.186E+00  0.186E+00  0.470E-13  0.470E-13
  -4.415  0.182E+00  0.182E+00  0.472E-13  0.472E-13
  -4.405  0.177E+00  0.177E+00  0.473E-13  0.473E-13
  -4.395  0.172E+00  0.172E+00  0.474E-13  0.474E-13
  -4.385  0.165E+00  0.165E+00  0.473E-13  0.473E-13
  -4.375  0.158E+00  0.158E+00  0.473E-13  0.473E-13
  -4.365  0.151E+00  0.151E+00  0.473E-13  0.473E-13
  -4.355  0.144E+00  0.144E+00  0.473E-13  0.473E-13
  -4.345  0.136E+00  0.136E+00  0.474E-13  0.474E-13
  -4.335  0.129E+00  0.129E+00  0.475E-13  0.475E-13
  -4.325  0.122E+00  0.122E+00  0.477E-13  0.477E-13
  -4.315  0.116E+00  0.116E+00  0.480E-13  0.480E-13
  -4.305  0.110E+00  0.110E+00  0.484E-13  0.484E-13
  -4.295  0.104E+00  0.104E+00  0.488E-13  0.488E-13
  -4.285  0.998E-01  0.998E-01  0.492E-13  0.492E-13
  -4.275  0.959E-01  0.959E-01  0.497E-13  0.497E-13
  -4.265  0.928E-01  0.928E-01  0.502E-13  0.502E-13
  -4.255  0.904E-01  0.904E-01  0.506E-13  0.506E-13
  -4.245  0.887E-01  0.887E-01  0.511E-13  0.511E-13
  -4.235  0.877E-01  0.877E-01  0.516E-13  0.516E-13
  -4.225  0.874E-01  0.874E-01  0.520E-13  0.520E-13
  -4.215  0.877E-01  0.877E-01  0.525E-13  0.525E-13
  -4.205  0.885E-01  0.885E-01  0.530E-13  0.530E-13
  -4.195  0.899E-01  0.899E-01  0.536E-13  0.536E-13
  -4.185  0.917E-01  0.917E-01  0.542E-13  0.542E-13
  -4.175  0.939E-01  0.939E-01  0.549E-13  0.549E-13
  -4.165  0.964E-01  0.964E-01  0.558E-13  0.558E-13
  -4.155  0.992E-01  0.992E-01  0.567E-13  0.567E-13
  -4.145  0.102E+00  0.102E+00  0.578E-13  0.578E-13
  -4.135  0.105E+00  0.105E+00  0.590E-13  0.590E-13
  -4.125  0.108E+00  0.108E+00  0.604E-13  0.604E-13
  -4.115  0.111E+00  0.111E+00  0.619E-13  0.619E-13
  -4.105  0.114E+00  0.114E+00  0.635E-13  0.635E-13
  -4.095  0.117E+00  0.117E+00  0.651E-13  0.651E-13
  -4.085  0.119E+00  0.119E+00  0.668E-13  0.668E-13
  -4.075  0.120E+00  0.120E+00  0.684E-13  0.684E-13
  -4.065  0.121E+00  0.121E+00  0.700E-13  0.700E-13
  -4.055  0.122E+00  0.122E+00  0.715E-13  0.715E-13
  -4.045  0.121E+00  0.121E+00  0.729E-13  0.729E-13
  -4.035  0.120E+00  0.120E+00  0.742E-13  0.742E-13
  -4.025  0.119E+00  0.119E+00  0.752E-13  0.752E-13
  -4.015  0.117E+00  0.117E+00  0.762E-13  0.762E-13
  -4.005  0.114E+00  0.114E+00  0.770E-13  0.770E-13
  -3.995  0.110E+00  0.110E+00  0.778E-13  0.778E-13
  -3.985  0.106E+00  0.106E+00  0.785E-13  0.785E-13
  -3.975  0.102E+00  0.102E+00  0.792E-13  0.792E-13
  -3.965  0.971E-01  0.971E-01  0.800E-13  0.800E-13
  -3.955  0.923E-01  0.923E-01  0.810E-13  0.810E-13
  -3.945  0.876E-01  0.876E-01  0.822E-13  0.822E-13
  -3.935  0.830E-01  0.830E-01  0.836E-13  0.836E-13
  -3.925  0.786E-01  0.786E-01  0.854E-13  0.854E-13
  -3.915  0.746E-01  0.746E-01  0.875E-13  0.875E-13
  -3.905  0.709E-01  0.709E-01  0.899E-13  0.899E-13
  -3.895  0.677E-01  0.677E-01  0.926E-13  0.926E-13
  -3.885  0.649E-01  0.649E-01  0.955E-13  0.955E-13
  -3.875  0.627E-01  0.627E-01  0.986E-13  0.986E-13
  -3.865  0.610E-01  0.610E-01  0.102E-12  0.102E-12
  -3.855  0.598E-01  0.598E-01  0.105E-12  0.105E-12
  -3.845  0.590E-01  0.590E-01  0.108E-12  0.108E-12
  -3.835  0.586E-01  0.586E-01  0.111E-12  0.111E-12
  -3.825  0.585E-01  0.585E-01  0.113E-12  0.113E-12
  -3.815  0.587E-01  0.587E-01  0.115E-12  0.115E-12
  -3.805  0.592E-01  0.592E-01  0.116E-12  0.116E-12
  -3.795  0.599E-01  0.599E-01  0.116E-12  0.116E-12
  -3.785  0.608E-01  0.608E-01  0.116E-12  0.116E-12
  -3.775  0.617E-01  0.617E-01  0.115E-12  0.115E-12
  -3.765  0.627E-01  0.627E-01  0.114E-12  0.114E-12
  -3.755  0.638E-01  0.638E-01  0.111E-12  0.111E-12
  -3.745  0.649E-01  0.649E-01  0.109E-12  0.109E-12
  -3.735  0.660E-01  0.660E-01  0.105E-12  0.105E-12
  -3.725  0.670E-01  0.670E-01  0.101E-12  0.101E-12
  -3.715  0.680E-01  0.680E-01  0.973E-13  0.973E-13
  -3.705  0.689E-01  0.689E-01  0.928E-13  0.928E-13
  -3.695  0.697E-01  0.697E-01  0.882E-13  0.882E-13
  -3.685  0.703E-01  0.703E-01  0.834E-13  0.834E-13
  -3.675  0.708E-01  0.708E-01  0.785E-13  0.785E-13
  -3.665  0.711E-01  0.711E-01  0.736E-13  0.736E-13
  -3.655  0.711E-01  0.711E-01  0.688E-13  0.688E-13
  -3.645  0.709E-01  0.709E-01  0.640E-13  0.640E-13
  -3.635  0.704E-01  0.704E-01  0.593E-13  0.593E-13
  -3.625  0.697E-01  0.697E-01  0.548E-13  0.548E-13
  -3.615  0.687E-01  0.687E-01  0.504E-13  0.504E-13
  -3.605  0.673E-01  0.673E-01  0.461E-13  0.461E-13
  -3.595  0.658E-01  0.658E-01  0.421E-13  0.421E-13
  -3.585  0.639E-01  0.639E-01  0.382E-13  0.382E-13
  -3.575  0.619E-01  0.619E-01  0.345E-13  0.345E-13
  -3.565  0.597E-01  0.597E-01  0.310E-13  0.310E-13
  -3.555  0.573E-01  0.573E-01  0.277E-13  0.277E-13
  -3.545  0.548E-01  0.548E-01  0.247E-13  0.247E-13
  -3.535  0.523E-01  0.523E-01  0.219E-13  0.219E-13
  -3.525  0.497E-01  0.497E-01  0.194E-13  0.194E-13
  -3.515  0.471E-01  0.471E-01  0.171E-13  0.171E-13
  -3.505  0.445E-01  0.445E-01  0.151E-13  0.151E-13
  -3.495  0.420E-01  0.420E-01  0.133E-13  0.133E-13
  -3.485  0.397E-01  0.397E-01  0.118E-13  0.118E-13
  -3.475  0.374E-01  0.374E-01  0.106E-13  0.106E-13
  -3.465  0.354E-01  0.354E-01  0.958E-14  0.958E-14
  -3.455  0.336E-01  0.336E-01  0.882E-14  0.882E-14
  -3.445  0.320E-01  0.320E-01  0.829E-14  0.829E-14
  -3.435  0.307E-01  0.307E-01  0.799E-14  0.799E-14
  -3.425  0.297E-01  0.297E-01  0.790E-14  0.790E-14
  -3.415  0.289E-01  0.289E-01  0.801E-14  0.801E-14
  -3.405  0.285E-01  0.285E-01  0.830E-14  0.830E-14
  -3.395  0.284E-01  0.284E-01  0.877E-14  0.877E-14
  -3.385  0.286E-01  0.286E-01  0.938E-14  0.938E-14
  -3.375  0.291E-01  0.291E-01  0.101E-13  0.101E-13
  -3.365  0.298E-01  0.298E-01  0.110E-13  0.110E-13
  -3.355  0.307E-01  0.307E-01  0.119E-13  0.119E-13
  -3.345  0.318E-01  0.318E-01  0.128E-13  0.128E-13
  -3.335  0.331E-01  0.331E-01  0.138E-13  0.138E-13
  -3.325  0.343E-01  0.343E-01  0.148E-13  0.148E-13
  -3.315  0.356E-01  0.356E-01  0.157E-13  0.157E-13
  -3.305  0.368E-01  0.368E-01  0.165E-13  0.165E-13
  -3.295  0.378E-01  0.378E-01  0.173E-13  0.173E-13
  -3.285  0.386E-01  0.386E-01  0.179E-13  0.179E-13
  -3.275  0.391E-01  0.391E-01  0.183E-13  0.183E-13
  -3.265  0.394E-01  0.394E-01  0.185E-13  0.185E-13
  -3.255  0.393E-01  0.393E-01  0.186E-13  0.186E-13
  -3.245  0.388E-01  0.388E-01  0.185E-13  0.185E-13
  -3.235  0.380E-01  0.380E-01  0.182E-13  0.182E-13
  -3.225  0.369E-01  0.369E-01  0.177E-13  0.177E-13
  -3.215  0.354E-01  0.354E-01  0.170E-13  0.170E-13
  -3.205  0.336E-01  0.336E-01  0.162E-13  0.162E-13
  -3.195  0.316E-01  0.316E-01  0.152E-13  0.152E-13
  -3.185  0.295E-01  0.295E-01  0.142E-13  0.142E-13
  -3.175  0.272E-01  0.272E-01  0.131E-13  0.131E-13
  -3.165  0.248E-01  0.248E-01  0.120E-13  0.120E-13
  -3.155  0.224E-01  0.224E-01  0.108E-13  0.108E-13
  -3.145  0.200E-01  0.200E-01  0.968E-14  0.968E-14
  -3.135  0.178E-01  0.178E-01  0.858E-14  0.858E-14
  -3.125  0.156E-01  0.156E-01  0.755E-14  0.755E-14
  -3.115  0.136E-01  0.136E-01  0.659E-14  0.659E-14
  -3.105  0.118E-01  0.118E-01  0.572E-14  0.572E-14
  -3.095  0.102E-01  0.102E-01  0.495E-14  0.495E-14
  -3.085  0.883E-02  0.883E-02  0.428E-14  0.428E-14
  -3.075  0.767E-02  0.767E-02  0.373E-14  0.373E-14
  -3.065  0.674E-02  0.674E-02  0.328E-14  0.328E-14
  -3.055  0.603E-02  0.603E-02  0.294E-14  0.294E-14
  -3.045  0.553E-02  0.553E-02  0.271E-14  0.271E-14
  -3.035  0.524E-02  0.524E-02  0.257E-14  0.257E-14
  -3.025  0.513E-02  0.513E-02  0.253E-14  0.253E-14
  -3.015  0.519E-02  0.519E-02  0.257E-14  0.257E-14
  -3.005  0.541E-02  0.541E-02  0.268E-14  0.268E-14
  -2.995  0.577E-02  0.577E-02  0.287E-14  0.287E-14
  -2.985  0.624E-02  0.624E-02  0.311E-14  0.311E-14
  -2.975  0.681E-02  0.681E-02  0.339E-14  0.339E-14
  -2.965  0.745E-02  0.745E-02  0.372E-14  0.372E-14
  -2.955  0.814E-02  0.814E-02  0.406E-14  0.406E-14
  -2.945  0.886E-02  0.886E-02  0.442E-14  0.442E-14
  -2.935  0.957E-02  0.957E-02  0.478E-14  0.478E-14
  -2.925  0.103E-01  0.103E-01  0.513E-14  0.513E-14
  -2.915  0.109E-01  0.109E-01  0.545E-14  0.545E-14
  -2.905  0.115E-01  0.115E-01  0.574E-14  0.574E-14
  -2.895  0.120E-01  0.120E-01  0.598E-14  0.598E-14
  -2.885  0.123E-01  0.123E-01  0.617E-14  0.617E-14
  -2.875  0.126E-01  0.126E-01  0.630E-14  0.630E-14
  -2.865  0.127E-01  0.127E-01  0.637E-14  0.637E-14
  -2.855  0.127E-01  0.127E-01  0.637E-14  0.637E-14
  -2.845  0.126E-01  0.126E-01  0.630E-14  0.630E-14
  -2.835  0.123E-01  0.123E-01  0.617E-14  0.617E-14
  -2.825  0.119E-01  0.119E-01  0.599E-14  0.599E-14
  -2.815  0.114E-01  0.114E-01  0.576E-14  0.576E-14
  -2.805  0.109E-01  0.109E-01  0.549E-14  0.549E-14
  -2.795  0.102E-01  0.102E-01  0.519E-14  0.519E-14
  -2.785  0.954E-02  0.954E-02  0.488E-14  0.488E-14
  -2.775  0.883E-02  0.883E-02  0.457E-14  0.457E-14
  -2.765  0.813E-02  0.813E-02  0.428E-14  0.428E-14
  -2.755  0.746E-02  0.746E-02  0.402E-14  0.402E-14
  -2.745  0.684E-02  0.684E-02  0.381E-14  0.381E-14
  -2.735  0.631E-02  0.631E-02  0.368E-14  0.368E-14
  -2.725  0.587E-02  0.587E-02  0.363E-14  0.363E-14
  -2.715  0.556E-02  0.556E-02  0.370E-14  0.370E-14
  -2.705  0.539E-02  0.539E-02  0.388E-14  0.388E-14
  -2.695  0.539E-02  0.539E-02  0.422E-14  0.422E-14
  -2.685  0.557E-02  0.557E-02  0.472E-14  0.472E-14
  -2.675  0.595E-02  0.595E-02  0.539E-14  0.539E-14
  -2.665  0.653E-02  0.653E-02  0.627E-14  0.627E-14
  -2.655  0.734E-02  0.734E-02  0.736E-14  0.736E-14
  -2.645  0.837E-02  0.837E-02  0.866E-14  0.866E-14
  -2.635  0.962E-02  0.962E-02  0.102E-13  0.102E-13
  -2.625  0.111E-01  0.111E-01  0.119E-13  0.119E-13
  -2.615  0.128E-01  0.128E-01  0.139E-13  0.139E-13
  -2.605  0.147E-01  0.147E-01  0.161E-13  0.161E-13
  -2.595  0.168E-01  0.168E-01  0.184E-13  0.184E-13
  -2.585  0.190E-01  0.190E-01  0.209E-13  0.209E-13
  -2.575  0.213E-01  0.213E-01  0.235E-13  0.235E-13
  -2.565  0.237E-01  0.237E-01  0.262E-13  0.262E-13
  -2.555  0.261E-01  0.261E-01  0.288E-13  0.288E-13
  -2.545  0.284E-01  0.284E-01  0.314E-13  0.314E-13
  -2.535  0.307E-01  0.307E-01  0.338E-13  0.338E-13
  -2.525  0.328E-01  0.328E-01  0.361E-13  0.361E-13
  -2.515  0.347E-01  0.347E-01  0.381E-13  0.381E-13
  -2.505  0.363E-01  0.363E-01  0.397E-13  0.397E-13
  -2.495  0.377E-01  0.377E-01  0.411E-13  0.411E-13
  -2.485  0.387E-01  0.387E-01  0.420E-13  0.420E-13
  -2.475  0.394E-01  0.394E-01  0.425E-13  0.425E-13
  -2.465  0.398E-01  0.398E-01  0.425E-13  0.425E-13
  -2.455  0.398E-01  0.398E-01  0.421E-13  0.421E-13
  -2.445  0.395E-01  0.395E-01  0.413E-13  0.413E-13
  -2.435  0.390E-01  0.390E-01  0.401E-13  0.401E-13
  -2.425  0.382E-01  0.382E-01  0.386E-13  0.386E-13
  -2.415  0.372E-01  0.372E-01  0.369E-13  0.369E-13
  -2.405  0.362E-01  0.362E-01  0.349E-13  0.349E-13
  -2.395  0.351E-01  0.351E-01  0.329E-13  0.329E-13
  -2.385  0.340E-01  0.340E-01  0.308E-13  0.308E-13
  -2.375  0.330E-01  0.330E-01  0.288E-13  0.288E-13
  -2.365  0.321E-01  0.321E-01  0.270E-13  0.270E-13
  -2.355  0.314E-01  0.314E-01  0.255E-13  0.255E-13
  -2.345  0.309E-01  0.309E-01  0.243E-13  0.243E-13
  -2.335  0.307E-01  0.307E-01  0.235E-13  0.235E-13
  -2.325  0.307E-01  0.307E-01  0.232E-13  0.232E-13
  -2.315  0.311E-01  0.311E-01  0.235E-13  0.235E-13
  -2.305  0.317E-01  0.317E-01  0.244E-13  0.244E-13
  -2.295  0.326E-01  0.326E-01  0.260E-13  0.260E-13
  -2.285  0.338E-01  0.338E-01  0.282E-13  0.282E-13
  -2.275  0.353E-01  0.353E-01  0.312E-13  0.312E-13
  -2.265  0.370E-01  0.370E-01  0.348E-13  0.348E-13
  -2.255  0.390E-01  0.390E-01  0.391E-13  0.391E-13
  -2.245  0.412E-01  0.412E-01  0.440E-13  0.440E-13
  -2.235  0.435E-01  0.435E-01  0.495E-13  0.495E-13
  -2.225  0.461E-01  0.461E-01  0.554E-13  0.554E-13
  -2.215  0.487E-01  0.487E-01  0.617E-13  0.617E-13
  -2.205  0.515E-01  0.515E-01  0.682E-13  0.682E-13
  -2.195  0.543E-01  0.543E-01  0.748E-13  0.748E-13
  -2.185  0.572E-01  0.572E-01  0.814E-13  0.814E-13
  -2.175  0.601E-01  0.601E-01  0.877E-13  0.877E-13
  -2.165  0.629E-01  0.629E-01  0.936E-13  0.936E-13
  -2.155  0.656E-01  0.656E-01  0.990E-13  0.990E-13
  -2.145  0.681E-01  0.681E-01  0.104E-12  0.104E-12
  -2.135  0.705E-01  0.705E-01  0.107E-12  0.107E-12
  -2.125  0.727E-01  0.727E-01  0.110E-12  0.110E-12
  -2.115  0.746E-01  0.746E-01  0.112E-12  0.112E-12
  -2.105  0.762E-01  0.762E-01  0.113E-12  0.113E-12
  -2.095  0.774E-01  0.774E-01  0.112E-12  0.112E-12
  -2.085  0.784E-01  0.784E-01  0.110E-12  0.110E-12
  -2.075  0.790E-01  0.790E-01  0.108E-12  0.108E-12
  -2.065  0.792E-01  0.792E-01  0.104E-12  0.104E-12
  -2.055  0.791E-01  0.791E-01  0.995E-13  0.995E-13
  -2.045  0.787E-01  0.787E-01  0.942E-13  0.942E-13
  -2.035  0.780E-01  0.780E-01  0.883E-13  0.883E-13
  -2.025  0.770E-01  0.770E-01  0.819E-13  0.819E-13
  -2.015  0.758E-01  0.758E-01  0.754E-13  0.754E-13
  -2.005  0.743E-01  0.743E-01  0.687E-13  0.687E-13
  -1.995  0.728E-01  0.728E-01  0.621E-13  0.621E-13
  -1.985  0.711E-01  0.711E-01  0.557E-13  0.557E-13
  -1.975  0.694E-01  0.694E-01  0.496E-13  0.496E-13
  -1.965  0.678E-01  0.678E-01  0.440E-13  0.440E-13
  -1.955  0.663E-01  0.663E-01  0.390E-13  0.390E-13
  -1.945  0.649E-01  0.649E-01  0.346E-13  0.346E-13
  -1.935  0.639E-01  0.639E-01  0.308E-13  0.308E-13
  -1.925  0.631E-01  0.631E-01  0.278E-13  0.278E-13
  -1.915  0.628E-01  0.628E-01  0.255E-13  0.255E-13
  -1.905  0.630E-01  0.630E-01  0.240E-13  0.240E-13
  -1.895  0.638E-01  0.638E-01  0.232E-13  0.232E-13
  -1.885  0.652E-01  0.652E-01  0.230E-13  0.230E-13
  -1.875  0.672E-01  0.672E-01  0.236E-13  0.236E-13
  -1.865  0.698E-01  0.698E-01  0.248E-13  0.248E-13
  -1.855  0.732E-01  0.732E-01  0.265E-13  0.265E-13
  -1.845  0.772E-01  0.772E-01  0.288E-13  0.288E-13
  -1.835  0.819E-01  0.819E-01  0.315E-13  0.315E-13
  -1.825  0.871E-01  0.871E-01  0.345E-13  0.345E-13
  -1.815  0.927E-01  0.927E-01  0.379E-13  0.379E-13
  -1.805  0.988E-01  0.988E-01  0.414E-13  0.414E-13
  -1.795  0.105E+00  0.105E+00  0.450E-13  0.450E-13
  -1.785  0.111E+00  0.111E+00  0.486E-13  0.486E-13
  -1.775  0.118E+00  0.118E+00  0.521E-13  0.521E-13
  -1.765  0.124E+00  0.124E+00  0.554E-13  0.554E-13
  -1.755  0.130E+00  0.130E+00  0.585E-13  0.585E-13
  -1.745  0.135E+00  0.135E+00  0.612E-13  0.612E-13
  -1.735  0.140E+00  0.140E+00  0.634E-13  0.634E-13
  -1.725  0.144E+00  0.144E+00  0.652E-13  0.652E-13
  -1.715  0.147E+00  0.147E+00  0.665E-13  0.665E-13
  -1.705  0.150E+00  0.150E+00  0.672E-13  0.672E-13
  -1.695  0.151E+00  0.151E+00  0.673E-13  0.673E-13
  -1.685  0.151E+00  0.151E+00  0.669E-13  0.669E-13
  -1.675  0.151E+00  0.151E+00  0.660E-13  0.660E-13
  -1.665  0.150E+00  0.150E+00  0.646E-13  0.646E-13
  -1.655  0.148E+00  0.148E+00  0.627E-13  0.627E-13
  -1.645  0.145E+00  0.145E+00  0.605E-13  0.605E-13
  -1.635  0.142E+00  0.142E+00  0.578E-13  0.578E-13
  -1.625  0.138E+00  0.138E+00  0.550E-13  0.550E-13
  -1.615  0.135E+00  0.135E+00  0.519E-13  0.519E-13
  -1.605  0.131E+00  0.131E+00  0.487E-13  0.487E-13
  -1.595  0.127E+00  0.127E+00  0.454E-13  0.454E-13
  -1.585  0.124E+00  0.124E+00  0.421E-13  0.421E-13
  -1.575  0.122E+00  0.122E+00  0.389E-13  0.389E-13
  -1.565  0.120E+00  0.120E+00  0.358E-13  0.358E-13
  -1.555  0.119E+00  0.119E+00  0.329E-13  0.329E-13
  -1.545  0.120E+00  0.120E+00  0.303E-13  0.303E-13
  -1.535  0.121E+00  0.121E+00  0.278E-13  0.278E-13
  -1.525  0.124E+00  0.124E+00  0.257E-13  0.257E-13
  -1.515  0.129E+00  0.129E+00  0.239E-13  0.239E-13
  -1.505  0.135E+00  0.135E+00  0.224E-13  0.224E-13
  -1.495  0.142E+00  0.142E+00  0.213E-13  0.213E-13
  -1.485  0.150E+00  0.150E+00  0.205E-13  0.205E-13
  -1.475  0.160E+00  0.160E+00  0.200E-13  0.200E-13
  -1.465  0.171E+00  0.171E+00  0.199E-13  0.199E-13
  -1.455  0.184E+00  0.184E+00  0.200E-13  0.200E-13
  -1.445  0.197E+00  0.197E+00  0.205E-13  0.205E-13
  -1.435  0.210E+00  0.210E+00  0.212E-13  0.212E-13
  -1.425  0.224E+00  0.224E+00  0.221E-13  0.221E-13
  -1.415  0.238E+00  0.238E+00  0.232E-13  0.232E-13
  -1.405  0.252E+00  0.252E+00  0.245E-13  0.245E-13
  -1.395  0.265E+00  0.265E+00  0.260E-13  0.260E-13
  -1.385  0.278E+00  0.278E+00  0.275E-13  0.275E-13
  -1.375  0.290E+00  0.290E+00  0.291E-13  0.291E-13
  -1.365  0.301E+00  0.301E+00  0.307E-13  0.307E-13
  -1.355  0.311E+00  0.311E+00  0.323E-13  0.323E-13
  -1.345  0.319E+00  0.319E+00  0.339E-13  0.339E-13
  -1.335  0.326E+00  0.326E+00  0.354E-13  0.354E-13
  -1.325  0.331E+00  0.331E+00  0.368E-13  0.368E-13
  -1.315  0.335E+00  0.335E+00  0.382E-13  0.382E-13
  -1.305  0.338E+00  0.338E+00  0.394E-13  0.394E-13
  -1.295  0.338E+00  0.338E+00  0.405E-13  0.405E-13
  -1.285  0.338E+00  0.338E+00  0.415E-13  0.415E-13
  -1.275  0.336E+00  0.336E+00  0.424E-13  0.424E-13
  -1.265  0.333E+00  0.333E+00  0.432E-13  0.432E-13
  -1.255  0.329E+00  0.329E+00  0.438E-13  0.438E-13
  -1.245  0.324E+00  0.324E+00  0.444E-13  0.444E-13
  -1.235  0.318E+00  0.318E+00  0.450E-13  0.450E-13
  -1.225  0.312E+00  0.312E+00  0.455E-13  0.455E-13
  -1.215  0.306E+00  0.306E+00  0.460E-13  0.460E-13
  -1.205  0.299E+00  0.299E+00  0.465E-13  0.465E-13
  -1.195  0.292E+00  0.292E+00  0.470E-13  0.470E-13
  -1.185  0.285E+00  0.285E+00  0.475E-13  0.475E-13
  -1.175  0.279E+00  0.279E+00  0.481E-13  0.481E-13
  -1.165  0.273E+00  0.273E+00  0.488E-13  0.488E-13
  -1.155  0.267E+00  0.267E+00  0.495E-13  0.495E-13
  -1.145  0.261E+00  0.261E+00  0.503E-13  0.503E-13
  -1.135  0.256E+00  0.256E+00  0.511E-13  0.511E-13
  -1.125  0.252E+00  0.252E+00  0.519E-13  0.519E-13
  -1.115  0.248E+00  0.248E+00  0.527E-13  0.527E-13
  -1.105  0.245E+00  0.245E+00  0.535E-13  0.535E-13
  -1.095  0.242E+00  0.242E+00  0.542E-13  0.542E-13
  -1.085  0.240E+00  0.240E+00  0.549E-13  0.549E-13
  -1.075  0.238E+00  0.238E+00  0.555E-13  0.555E-13
  -1.065  0.237E+00  0.237E+00  0.560E-13  0.560E-13
  -1.055  0.237E+00  0.237E+00  0.565E-13  0.565E-13
  -1.045  0.236E+00  0.236E+00  0.569E-13  0.569E-13
  -1.035  0.236E+00  0.236E+00  0.572E-13  0.572E-13
  -1.025  0.236E+00  0.236E+00  0.575E-13  0.575E-13
  -1.015  0.237E+00  0.237E+00  0.578E-13  0.578E-13
  -1.005  0.237E+00  0.237E+00  0.581E-13  0.581E-13
  -0.995  0.238E+00  0.238E+00  0.583E-13  0.583E-13
  -0.985  0.239E+00  0.239E+00  0.587E-13  0.587E-13
  -0.975  0.239E+00  0.239E+00  0.591E-13  0.591E-13
  -0.965  0.240E+00  0.240E+00  0.595E-13  0.595E-13
  -0.955  0.240E+00  0.240E+00  0.601E-13  0.601E-13
  -0.945  0.240E+00  0.240E+00  0.607E-13  0.607E-13
  -0.935  0.240E+00  0.240E+00  0.615E-13  0.615E-13
  -0.925  0.239E+00  0.239E+00  0.623E-13  0.623E-13
  -0.915  0.238E+00  0.238E+00  0.632E-13  0.632E-13
  -0.905  0.237E+00  0.237E+00  0.641E-13  0.641E-13
  -0.895  0.235E+00  0.235E+00  0.650E-13  0.650E-13
  -0.885  0.232E+00  0.232E+00  0.659E-13  0.659E-13
  -0.875  0.229E+00  0.229E+00  0.668E-13  0.668E-13
  -0.865  0.225E+00  0.225E+00  0.675E-13  0.675E-13
  -0.855  0.221E+00  0.221E+00  0.682E-13  0.682E-13
  -0.845  0.216E+00  0.216E+00  0.687E-13  0.687E-13
  -0.835  0.211E+00  0.211E+00  0.691E-13  0.691E-13
  -0.825  0.206E+00  0.206E+00  0.693E-13  0.693E-13
  -0.815  0.200E+00  0.200E+00  0.693E-13  0.693E-13
  -0.805  0.194E+00  0.194E+00  0.691E-13  0.691E-13
  -0.795  0.188E+00  0.188E+00  0.689E-13  0.689E-13
  -0.785  0.183E+00  0.183E+00  0.685E-13  0.685E-13
  -0.775  0.178E+00  0.178E+00  0.680E-13  0.680E-13
  -0.765  0.173E+00  0.173E+00  0.674E-13  0.674E-13
  -0.755  0.168E+00  0.168E+00  0.669E-13  0.669E-13
  -0.745  0.164E+00  0.164E+00  0.663E-13  0.663E-13
  -0.735  0.161E+00  0.161E+00  0.659E-13  0.659E-13
  -0.725  0.158E+00  0.158E+00  0.655E-13  0.655E-13
  -0.715  0.156E+00  0.156E+00  0.653E-13  0.653E-13
  -0.705  0.155E+00  0.155E+00  0.652E-13  0.652E-13
  -0.695  0.154E+00  0.154E+00  0.653E-13  0.653E-13
  -0.685  0.154E+00  0.154E+00  0.655E-13  0.655E-13
  -0.675  0.154E+00  0.154E+00  0.659E-13  0.659E-13
  -0.665  0.155E+00  0.155E+00  0.663E-13  0.663E-13
  -0.655  0.156E+00  0.156E+00  0.668E-13  0.668E-13
  -0.645  0.157E+00  0.157E+00  0.674E-13  0.674E-13
  -0.635  0.159E+00  0.159E+00  0.679E-13  0.679E-13
  -0.625  0.160E+00  0.160E+00  0.683E-13  0.683E-13
  -0.615  0.162E+00  0.162E+00  0.686E-13  0.686E-13
  -0.605  0.164E+00  0.164E+00  0.688E-13  0.688E-13
  -0.595  0.165E+00  0.165E+00  0.689E-13  0.689E-13
  -0.585  0.167E+00  0.167E+00  0.687E-13  0.687E-13
  -0.575  0.168E+00  0.168E+00  0.683E-13  0.683E-13
  -0.565  0.170E+00  0.170E+00  0.677E-13  0.677E-13
  -0.555  0.171E+00  0.171E+00  0.670E-13  0.670E-13
  -0.545  0.173E+00  0.173E+00  0.661E-13  0.661E-13
  -0.535  0.174E+00  0.174E+00  0.650E-13  0.650E-13
  -0.525  0.176E+00  0.176E+00  0.638E-13  0.638E-13
  -0.515  0.178E+00  0.178E+00  0.626E-13  0.626E-13
  -0.505  0.179E+00  0.179E+00  0.613E-13  0.613E-13
  -0.495  0.181E+00  0.181E+00  0.600E-13  0.600E-13
  -0.485  0.183E+00  0.183E+00  0.587E-13  0.587E-13
  -0.475  0.184E+00  0.184E+00  0.574E-13  0.574E-13
  -0.465  0.185E+00  0.185E+00  0.562E-13  0.562E-13
  -0.455  0.186E+00  0.186E+00  0.550E-13  0.550E-13
  -0.445  0.187E+00  0.187E+00  0.538E-13  0.538E-13
  -0.435  0.187E+00  0.187E+00  0.528E-13  0.528E-13
  -0.425  0.187E+00  0.187E+00  0.519E-13  0.519E-13
  -0.415  0.186E+00  0.186E+00  0.510E-13  0.510E-13
  -0.405  0.184E+00  0.184E+00  0.504E-13  0.504E-13
  -0.395  0.182E+00  0.182E+00  0.499E-13  0.499E-13
  -0.385  0.179E+00  0.179E+00  0.497E-13  0.497E-13
  -0.375  0.176E+00  0.176E+00  0.499E-13  0.499E-13
  -0.365  0.172E+00  0.172E+00  0.505E-13  0.505E-13
  -0.355  0.168E+00  0.168E+00  0.517E-13  0.517E-13
  -0.345  0.164E+00  0.164E+00  0.535E-13  0.535E-13
  -0.335  0.159E+00  0.159E+00  0.562E-13  0.562E-13
  -0.325  0.154E+00  0.154E+00  0.597E-13  0.597E-13
  -0.315  0.149E+00  0.149E+00  0.643E-13  0.643E-13
  -0.305  0.144E+00  0.144E+00  0.701E-13  0.701E-13
  -0.295  0.139E+00  0.139E+00  0.772E-13  0.772E-13
  -0.285  0.135E+00  0.135E+00  0.856E-13  0.856E-13
  -0.275  0.131E+00  0.131E+00  0.954E-13  0.954E-13
  -0.265  0.127E+00  0.127E+00  0.107E-12  0.107E-12
  -0.255  0.124E+00  0.124E+00  0.119E-12  0.119E-12
  -0.245  0.122E+00  0.122E+00  0.133E-12  0.133E-12
  -0.235  0.121E+00  0.121E+00  0.148E-12  0.148E-12
  -0.225  0.120E+00  0.120E+00  0.164E-12  0.164E-12
  -0.215  0.120E+00  0.120E+00  0.180E-12  0.180E-12
  -0.205  0.121E+00  0.121E+00  0.197E-12  0.197E-12
  -0.195  0.122E+00  0.122E+00  0.214E-12  0.214E-12
  -0.185  0.124E+00  0.124E+00  0.230E-12  0.230E-12
  -0.175  0.126E+00  0.126E+00  0.246E-12  0.246E-12
  -0.165  0.129E+00  0.129E+00  0.260E-12  0.260E-12
  -0.155  0.132E+00  0.132E+00  0.273E-12  0.273E-12
  -0.145  0.135E+00  0.135E+00  0.284E-12  0.284E-12
  -0.135  0.138E+00  0.138E+00  0.292E-12  0.292E-12
  -0.125  0.142E+00  0.142E+00  0.298E-12  0.298E-12
  -0.115  0.145E+00  0.145E+00  0.302E-12  0.302E-12
  -0.105  0.147E+00  0.147E+00  0.303E-12  0.303E-12
  -0.095  0.150E+00  0.150E+00  0.302E-12  0.302E-12
  -0.085  0.152E+00  0.152E+00  0.298E-12  0.298E-12
  -0.075  0.154E+00  0.154E+00  0.293E-12  0.293E-12
  -0.065  0.155E+00  0.155E+00  0.285E-12  0.285E-12
  -0.055  0.157E+00  0.157E+00  0.276E-12  0.276E-12
  -0.045  0.157E+00  0.157E+00  0.266E-12  0.266E-12
  -0.035  0.158E+00  0.158E+00  0.256E-12  0.256E-12
  -0.025  0.158E+00  0.158E+00  0.245E-12  0.245E-12
  -0.015  0.159E+00  0.159E+00  0.235E-12  0.235E-12
  -0.005  0.159E+00  0.159E+00  0.226E-12  0.226E-12
   0.005  0.158E+00  0.158E+00  0.217E-12  0.217E-12
   0.015  0.158E+00  0.158E+00  0.210E-12  0.210E-12
   0.025  0.158E+00  0.158E+00  0.205E-12  0.205E-12
   0.035  0.157E+00  0.157E+00  0.202E-12  0.202E-12
   0.045  0.157E+00  0.157E+00  0.200E-12  0.200E-12
   0.055  0.156E+00  0.156E+00  0.200E-12  0.200E-12
   0.065  0.155E+00  0.155E+00  0.202E-12  0.202E-12
   0.075  0.154E+00  0.154E+00  0.206E-12  0.206E-12
   0.085  0.152E+00  0.152E+00  0.211E-12  0.211E-12
   0.095  0.151E+00  0.151E+00  0.218E-12  0.218E-12
   0.105  0.149E+00  0.149E+00  0.225E-12  0.225E-12
   0.115  0.147E+00  0.147E+00  0.233E-12  0.233E-12
   0.125  0.145E+00  0.145E+00  0.242E-12  0.242E-12
   0.135  0.143E+00  0.143E+00  0.251E-12  0.251E-12
   0.145  0.141E+00  0.141E+00  0.261E-12  0.261E-12
   0.155  0.138E+00  0.138E+00  0.273E-12  0.273E-12
   0.165  0.136E+00  0.136E+00  0.288E-12  0.288E-12
   0.175  0.133E+00  0.133E+00  0.309E-12  0.309E-12
   0.185  0.130E+00  0.130E+00  0.345E-12  0.345E-12
   0.195  0.128E+00  0.128E+00  0.407E-12  0.407E-12
   0.205  0.125E+00  0.125E+00  0.521E-12  0.521E-12
   0.215  0.122E+00  0.122E+00  0.730E-12  0.730E-12
   0.225  0.119E+00  0.119E+00  0.111E-11  0.111E-11
   0.235  0.117E+00  0.117E+00  0.181E-11  0.181E-11
   0.245  0.114E+00  0.114E+00  0.307E-11  0.307E-11
   0.255  0.112E+00  0.112E+00  0.530E-11  0.530E-11
   0.265  0.110E+00  0.110E+00  0.925E-11  0.925E-11
   0.275  0.108E+00  0.108E+00  0.162E-10  0.162E-10
   0.285  0.106E+00  0.106E+00  0.281E-10  0.281E-10
   0.295  0.105E+00  0.105E+00  0.484E-10  0.484E-10
   0.305  0.104E+00  0.104E+00  0.828E-10  0.828E-10
   0.315  0.104E+00  0.104E+00  0.140E-09  0.140E-09
   0.325  0.104E+00  0.104E+00  0.236E-09  0.236E-09
   0.335  0.105E+00  0.105E+00  0.392E-09  0.392E-09
   0.345  0.106E+00  0.106E+00  0.644E-09  0.644E-09
   0.355  0.108E+00  0.108E+00  0.105E-08  0.105E-08
   0.365  0.111E+00  0.111E+00  0.169E-08  0.169E-08
   0.375  0.114E+00  0.114E+00  0.271E-08  0.271E-08
   0.385  0.118E+00  0.118E+00  0.428E-08  0.428E-08
   0.395  0.122E+00  0.122E+00  0.671E-08  0.671E-08
   0.405  0.126E+00  0.126E+00  0.104E-07  0.104E-07
   0.415  0.130E+00  0.130E+00  0.160E-07  0.160E-07
   0.425  0.135E+00  0.135E+00  0.243E-07  0.243E-07
   0.435  0.139E+00  0.139E+00  0.366E-07  0.366E-07
   0.445  0.143E+00  0.143E+00  0.545E-07  0.545E-07
   0.455  0.147E+00  0.147E+00  0.805E-07  0.805E-07
   0.465  0.150E+00  0.150E+00  0.118E-06  0.118E-06
   0.475  0.153E+00  0.153E+00  0.171E-06  0.171E-06
   0.485  0.155E+00  0.155E+00  0.245E-06  0.245E-06
   0.495  0.157E+00  0.157E+00  0.348E-06  0.348E-06
   0.505  0.157E+00  0.157E+00  0.490E-06  0.490E-06
   0.515  0.157E+00  0.157E+00  0.683E-06  0.683E-06
   0.525  0.156E+00  0.156E+00  0.944E-06  0.944E-06
   0.535  0.155E+00  0.155E+00  0.129E-05  0.129E-05
   0.545  0.152E+00  0.152E+00  0.175E-05  0.175E-05
   0.555  0.149E+00  0.149E+00  0.236E-05  0.236E-05
   0.565  0.146E+00  0.146E+00  0.314E-05  0.314E-05
   0.575  0.142E+00  0.142E+00  0.414E-05  0.414E-05
   0.585  0.138E+00  0.138E+00  0.542E-05  0.542E-05
   0.595  0.134E+00  0.134E+00  0.703E-05  0.703E-05
   0.605  0.130E+00  0.130E+00  0.903E-05  0.903E-05
   0.615  0.125E+00  0.125E+00  0.115E-04  0.115E-04
   0.625  0.121E+00  0.121E+00  0.145E-04  0.145E-04
   0.635  0.117E+00  0.117E+00  0.182E-04  0.182E-04
   0.645  0.114E+00  0.114E+00  0.227E-04  0.227E-04
   0.655  0.111E+00  0.110E+00  0.279E-04  0.279E-04
   0.665  0.108E+00  0.108E+00  0.341E-04  0.341E-04
   0.675  0.105E+00  0.105E+00  0.414E-04  0.414E-04
   0.685  0.104E+00  0.103E+00  0.498E-04  0.498E-04
   0.695  0.102E+00  0.102E+00  0.595E-04  0.595E-04
   0.705  0.101E+00  0.101E+00  0.705E-04  0.705E-04
   0.715  0.101E+00  0.101E+00  0.829E-04  0.829E-04
   0.725  0.101E+00  0.100E+00  0.969E-04  0.969E-04
   0.735  0.101E+00  0.101E+00  0.112E-03  0.112E-03
   0.745  0.102E+00  0.101E+00  0.129E-03  0.129E-03
   0.755  0.102E+00  0.102E+00  0.148E-03  0.148E-03
   0.765  0.103E+00  0.103E+00  0.168E-03  0.168E-03
   0.775  0.104E+00  0.104E+00  0.190E-03  0.190E-03
   0.785  0.106E+00  0.105E+00  0.213E-03  0.213E-03
   0.795  0.107E+00  0.106E+00  0.238E-03  0.238E-03
   0.805  0.108E+00  0.107E+00  0.264E-03  0.264E-03
   0.815  0.108E+00  0.108E+00  0.292E-03  0.292E-03
   0.825  0.109E+00  0.108E+00  0.320E-03  0.320E-03
   0.835  0.109E+00  0.109E+00  0.350E-03  0.350E-03
   0.845  0.110E+00  0.109E+00  0.380E-03  0.380E-03
   0.855  0.110E+00  0.109E+00  0.411E-03  0.411E-03
   0.865  0.110E+00  0.109E+00  0.443E-03  0.443E-03
   0.875  0.110E+00  0.109E+00  0.475E-03  0.475E-03
   0.885  0.110E+00  0.109E+00  0.507E-03  0.507E-03
   0.895  0.110E+00  0.109E+00  0.540E-03  0.540E-03
   0.905  0.111E+00  0.109E+00  0.573E-03  0.573E-03
   0.915  0.111E+00  0.110E+00  0.606E-03  0.606E-03
   0.925  0.112E+00  0.111E+00  0.638E-03  0.638E-03
   0.935  0.113E+00  0.112E+00  0.671E-03  0.671E-03
   0.945  0.115E+00  0.114E+00  0.703E-03  0.703E-03
   0.955  0.117E+00  0.116E+00  0.734E-03  0.734E-03
   0.965  0.119E+00  0.118E+00  0.766E-03  0.766E-03
   0.975  0.122E+00  0.121E+00  0.796E-03  0.796E-03
   0.985  0.125E+00  0.123E+00  0.827E-03  0.827E-03
   0.995  0.128E+00  0.126E+00  0.856E-03  0.856E-03
   1.005  0.131E+00  0.129E+00  0.885E-03  0.885E-03
   1.015  0.134E+00  0.132E+00  0.913E-03  0.913E-03
   1.025  0.137E+00  0.135E+00  0.941E-03  0.941E-03
   1.035  0.140E+00  0.138E+00  0.968E-03  0.968E-03
   1.045  0.142E+00  0.140E+00  0.995E-03  0.995E-03
   1.055  0.143E+00  0.141E+00  0.102E-02  0.102E-02
   1.065  0.144E+00  0.142E+00  0.105E-02  0.105E-02
   1.075  0.144E+00  0.142E+00  0.107E-02  0.107E-02
   1.085  0.143E+00  0.141E+00  0.110E-02  0.110E-02
   1.095  0.142E+00  0.140E+00  0.112E-02  0.112E-02
   1.105  0.140E+00  0.138E+00  0.115E-02  0.115E-02
   1.115  0.137E+00  0.135E+00  0.117E-02  0.117E-02
   1.125  0.134E+00  0.131E+00  0.119E-02  0.119E-02
   1.135  0.130E+00  0.128E+00  0.122E-02  0.122E-02
   1.145  0.126E+00  0.123E+00  0.124E-02  0.124E-02
   1.155  0.121E+00  0.119E+00  0.126E-02  0.126E-02
   1.165  0.116E+00  0.114E+00  0.128E-02  0.128E-02
   1.175  0.112E+00  0.109E+00  0.130E-02  0.130E-02
   1.185  0.107E+00  0.104E+00  0.132E-02  0.132E-02
   1.195  0.102E+00  0.997E-01  0.134E-02  0.134E-02
   1.205  0.982E-01  0.955E-01  0.135E-02  0.135E-02
   1.215  0.943E-01  0.915E-01  0.137E-02  0.137E-02
   1.225  0.908E-01  0.880E-01  0.138E-02  0.138E-02
   1.235  0.878E-01  0.850E-01  0.140E-02  0.140E-02
   1.245  0.854E-01  0.825E-01  0.141E-02  0.141E-02
   1.255  0.834E-01  0.806E-01  0.143E-02  0.143E-02
   1.265  0.821E-01  0.792E-01  0.144E-02  0.144E-02
   1.275  0.813E-01  0.784E-01  0.146E-02  0.146E-02
   1.285  0.811E-01  0.781E-01  0.148E-02  0.148E-02
   1.295  0.814E-01  0.784E-01  0.149E-02  0.149E-02
   1.305  0.823E-01  0.793E-01  0.151E-02  0.151E-02
   1.315  0.837E-01  0.806E-01  0.153E-02  0.153E-02
   1.325  0.855E-01  0.824E-01  0.155E-02  0.155E-02
   1.335  0.878E-01  0.847E-01  0.157E-02  0.157E-02
   1.345  0.905E-01  0.873E-01  0.158E-02  0.158E-02
   1.355  0.935E-01  0.903E-01  0.160E-02  0.160E-02
   1.365  0.968E-01  0.936E-01  0.162E-02  0.162E-02
   1.375  0.100E+00  0.970E-01  0.163E-02  0.163E-02
   1.385  0.104E+00  0.101E+00  0.164E-02  0.164E-02
   1.395  0.108E+00  0.104E+00  0.165E-02  0.165E-02
   1.405  0.111E+00  0.108E+00  0.166E-02  0.166E-02
   1.415  0.115E+00  0.111E+00  0.166E-02  0.166E-02
   1.425  0.118E+00  0.114E+00  0.167E-02  0.167E-02
   1.435  0.121E+00  0.117E+00  0.167E-02  0.167E-02
   1.445  0.123E+00  0.120E+00  0.167E-02  0.167E-02
   1.455  0.126E+00  0.122E+00  0.168E-02  0.168E-02
   1.465  0.128E+00  0.124E+00  0.168E-02  0.168E-02
   1.475  0.129E+00  0.126E+00  0.168E-02  0.168E-02
   1.485  0.130E+00  0.127E+00  0.169E-02  0.169E-02
   1.495  0.130E+00  0.127E+00  0.170E-02  0.170E-02
   1.505  0.131E+00  0.127E+00  0.171E-02  0.171E-02
   1.515  0.130E+00  0.127E+00  0.173E-02  0.173E-02
   1.525  0.130E+00  0.126E+00  0.175E-02  0.175E-02
   1.535  0.129E+00  0.126E+00  0.177E-02  0.177E-02
   1.545  0.128E+00  0.125E+00  0.179E-02  0.179E-02
   1.555  0.127E+00  0.123E+00  0.181E-02  0.181E-02
   1.565  0.126E+00  0.122E+00  0.183E-02  0.183E-02
   1.575  0.124E+00  0.121E+00  0.186E-02  0.186E-02
   1.585  0.123E+00  0.119E+00  0.188E-02  0.188E-02
   1.595  0.121E+00  0.117E+00  0.189E-02  0.189E-02
   1.605  0.120E+00  0.116E+00  0.191E-02  0.191E-02
   1.615  0.118E+00  0.114E+00  0.192E-02  0.192E-02
   1.625  0.116E+00  0.113E+00  0.192E-02  0.192E-02
   1.635  0.115E+00  0.111E+00  0.193E-02  0.193E-02
   1.645  0.113E+00  0.109E+00  0.192E-02  0.192E-02
   1.655  0.112E+00  0.108E+00  0.192E-02  0.192E-02
   1.665  0.110E+00  0.106E+00  0.191E-02  0.191E-02
   1.675  0.108E+00  0.105E+00  0.190E-02  0.190E-02
   1.685  0.107E+00  0.103E+00  0.189E-02  0.189E-02
   1.695  0.105E+00  0.101E+00  0.189E-02  0.189E-02
   1.705  0.103E+00  0.997E-01  0.188E-02  0.188E-02
   1.715  0.102E+00  0.982E-01  0.187E-02  0.187E-02
   1.725  0.100E+00  0.966E-01  0.187E-02  0.187E-02
   1.735  0.989E-01  0.951E-01  0.187E-02  0.187E-02
   1.745  0.974E-01  0.936E-01  0.188E-02  0.188E-02
   1.755  0.960E-01  0.922E-01  0.189E-02  0.189E-02
   1.765  0.946E-01  0.908E-01  0.191E-02  0.191E-02
   1.775  0.933E-01  0.895E-01  0.193E-02  0.193E-02
   1.785  0.921E-01  0.882E-01  0.195E-02  0.195E-02
   1.795  0.909E-01  0.869E-01  0.198E-02  0.198E-02
   1.805  0.898E-01  0.858E-01  0.201E-02  0.201E-02
   1.815  0.888E-01  0.847E-01  0.204E-02  0.204E-02
   1.825  0.878E-01  0.837E-01  0.206E-02  0.206E-02
   1.835  0.870E-01  0.828E-01  0.209E-02  0.209E-02
   1.845  0.863E-01  0.820E-01  0.211E-02  0.211E-02
   1.855  0.857E-01  0.814E-01  0.213E-02  0.213E-02
   1.865  0.852E-01  0.809E-01  0.215E-02  0.215E-02
   1.875  0.850E-01  0.807E-01  0.215E-02  0.215E-02
   1.885  0.850E-01  0.806E-01  0.216E-02  0.216E-02
   1.895  0.852E-01  0.809E-01  0.215E-02  0.215E-02
   1.905  0.857E-01  0.815E-01  0.214E-02  0.214E-02
   1.915  0.866E-01  0.824E-01  0.212E-02  0.212E-02
   1.925  0.879E-01  0.837E-01  0.210E-02  0.210E-02
   1.935  0.895E-01  0.854E-01  0.208E-02  0.208E-02
   1.945  0.916E-01  0.875E-01  0.205E-02  0.205E-02
   1.955  0.941E-01  0.901E-01  0.203E-02  0.203E-02
   1.965  0.970E-01  0.930E-01  0.200E-02  0.200E-02
   1.975  0.100E+00  0.963E-01  0.198E-02  0.198E-02
   1.985  0.104E+00  0.999E-01  0.195E-02  0.195E-02
   1.995  0.108E+00  0.104E+00  0.194E-02  0.194E-02
   2.005  0.112E+00  0.108E+00  0.193E-02  0.193E-02
   2.015  0.116E+00  0.112E+00  0.192E-02  0.192E-02
   2.025  0.120E+00  0.116E+00  0.193E-02  0.193E-02
   2.035  0.123E+00  0.119E+00  0.193E-02  0.193E-02
   2.045  0.127E+00  0.123E+00  0.195E-02  0.195E-02
   2.055  0.130E+00  0.126E+00  0.197E-02  0.197E-02
   2.065  0.132E+00  0.128E+00  0.199E-02  0.199E-02
   2.075  0.134E+00  0.130E+00  0.202E-02  0.202E-02
   2.085  0.135E+00  0.131E+00  0.206E-02  0.206E-02
   2.095  0.135E+00  0.131E+00  0.209E-02  0.209E-02
   2.105  0.134E+00  0.130E+00  0.212E-02  0.212E-02
   2.115  0.133E+00  0.128E+00  0.216E-02  0.216E-02
   2.125  0.130E+00  0.126E+00  0.219E-02  0.219E-02
   2.135  0.127E+00  0.123E+00  0.221E-02  0.221E-02
   2.145  0.124E+00  0.119E+00  0.223E-02  0.223E-02
   2.155  0.120E+00  0.115E+00  0.225E-02  0.225E-02
   2.165  0.115E+00  0.111E+00  0.226E-02  0.226E-02
   2.175  0.110E+00  0.106E+00  0.226E-02  0.226E-02
   2.185  0.105E+00  0.101E+00  0.225E-02  0.225E-02
   2.195  0.100E+00  0.960E-01  0.223E-02  0.223E-02
   2.205  0.957E-01  0.913E-01  0.221E-02  0.221E-02
   2.215  0.913E-01  0.869E-01  0.218E-02  0.218E-02
   2.225  0.872E-01  0.829E-01  0.215E-02  0.215E-02
   2.235  0.836E-01  0.794E-01  0.211E-02  0.211E-02
   2.245  0.806E-01  0.764E-01  0.207E-02  0.207E-02
   2.255  0.780E-01  0.740E-01  0.202E-02  0.202E-02
   2.265  0.761E-01  0.721E-01  0.198E-02  0.198E-02
   2.275  0.746E-01  0.708E-01  0.194E-02  0.194E-02
   2.285  0.738E-01  0.700E-01  0.190E-02  0.190E-02
   2.295  0.734E-01  0.696E-01  0.187E-02  0.187E-02
   2.305  0.735E-01  0.698E-01  0.185E-02  0.185E-02
   2.315  0.740E-01  0.703E-01  0.183E-02  0.183E-02
   2.325  0.748E-01  0.712E-01  0.182E-02  0.182E-02
   2.335  0.760E-01  0.723E-01  0.182E-02  0.182E-02
   2.345  0.773E-01  0.737E-01  0.183E-02  0.183E-02
   2.355  0.789E-01  0.752E-01  0.185E-02  0.185E-02
   2.365  0.806E-01  0.769E-01  0.187E-02  0.187E-02
   2.375  0.824E-01  0.786E-01  0.190E-02  0.190E-02
   2.385  0.843E-01  0.804E-01  0.193E-02  0.193E-02
   2.395  0.861E-01  0.822E-01  0.197E-02  0.197E-02
   2.405  0.879E-01  0.839E-01  0.201E-02  0.201E-02
   2.415  0.897E-01  0.856E-01  0.205E-02  0.205E-02
   2.425  0.914E-01  0.872E-01  0.209E-02  0.209E-02
   2.435  0.929E-01  0.887E-01  0.212E-02  0.212E-02
   2.445  0.944E-01  0.901E-01  0.215E-02  0.215E-02
   2.455  0.957E-01  0.914E-01  0.217E-02  0.217E-02
   2.465  0.969E-01  0.925E-01  0.219E-02  0.219E-02
   2.475  0.979E-01  0.935E-01  0.220E-02  0.220E-02
   2.485  0.989E-01  0.945E-01  0.221E-02  0.221E-02
   2.495  0.998E-01  0.953E-01  0.220E-02  0.220E-02
   2.505  0.101E+00  0.962E-01  0.219E-02  0.219E-02
   2.515  0.101E+00  0.970E-01  0.217E-02  0.217E-02
   2.525  0.102E+00  0.978E-01  0.215E-02  0.215E-02
   2.535  0.103E+00  0.986E-01  0.212E-02  0.212E-02
   2.545  0.104E+00  0.995E-01  0.208E-02  0.208E-02
   2.555  0.105E+00  0.101E+00  0.205E-02  0.205E-02
   2.565  0.106E+00  0.102E+00  0.200E-02  0.200E-02
   2.575  0.107E+00  0.103E+00  0.196E-02  0.196E-02
   2.585  0.108E+00  0.104E+00  0.191E-02  0.191E-02
   2.595  0.109E+00  0.105E+00  0.187E-02  0.187E-02
   2.605  0.110E+00  0.107E+00  0.183E-02  0.183E-02
   2.615  0.111E+00  0.108E+00  0.178E-02  0.178E-02
   2.625  0.112E+00  0.109E+00  0.175E-02  0.175E-02
   2.635  0.113E+00  0.110E+00  0.171E-02  0.171E-02
   2.645  0.114E+00  0.111E+00  0.168E-02  0.168E-02
   2.655  0.114E+00  0.111E+00  0.166E-02  0.166E-02
   2.665  0.114E+00  0.111E+00  0.164E-02  0.164E-02
   2.675  0.114E+00  0.111E+00  0.163E-02  0.163E-02
   2.685  0.113E+00  0.110E+00  0.163E-02  0.163E-02
   2.695  0.112E+00  0.109E+00  0.163E-02  0.163E-02
   2.705  0.110E+00  0.107E+00  0.165E-02  0.165E-02
   2.715  0.108E+00  0.105E+00  0.167E-02  0.167E-02
   2.725  0.106E+00  0.102E+00  0.169E-02  0.169E-02
   2.735  0.103E+00  0.995E-01  0.172E-02  0.172E-02
   2.745  0.997E-01  0.962E-01  0.176E-02  0.176E-02
   2.755  0.963E-01  0.928E-01  0.179E-02  0.179E-02
   2.765  0.928E-01  0.891E-01  0.183E-02  0.183E-02
   2.775  0.892E-01  0.854E-01  0.187E-02  0.187E-02
   2.785  0.856E-01  0.818E-01  0.191E-02  0.191E-02
   2.795  0.821E-01  0.782E-01  0.195E-02  0.195E-02
   2.805  0.789E-01  0.749E-01  0.198E-02  0.198E-02
   2.815  0.759E-01  0.719E-01  0.201E-02  0.201E-02
   2.825  0.732E-01  0.692E-01  0.203E-02  0.203E-02
   2.835  0.710E-01  0.669E-01  0.205E-02  0.205E-02
   2.845  0.691E-01  0.650E-01  0.206E-02  0.206E-02
   2.855  0.678E-01  0.636E-01  0.207E-02  0.207E-02
   2.865  0.669E-01  0.627E-01  0.208E-02  0.208E-02
   2.875  0.665E-01  0.623E-01  0.208E-02  0.208E-02
   2.885  0.665E-01  0.624E-01  0.209E-02  0.209E-02
   2.895  0.670E-01  0.629E-01  0.210E-02  0.210E-02
   2.905  0.680E-01  0.638E-01  0.212E-02  0.212E-02
   2.915  0.694E-01  0.651E-01  0.215E-02  0.215E-02
   2.925  0.711E-01  0.667E-01  0.219E-02  0.219E-02
   2.935  0.732E-01  0.687E-01  0.227E-02  0.227E-02
   2.945  0.757E-01  0.709E-01  0.237E-02  0.237E-02
   2.955  0.784E-01  0.734E-01  0.250E-02  0.250E-02
   2.965  0.815E-01  0.761E-01  0.268E-02  0.268E-02
   2.975  0.848E-01  0.790E-01  0.291E-02  0.291E-02
   2.985  0.884E-01  0.820E-01  0.319E-02  0.319E-02
   2.995  0.922E-01  0.851E-01  0.353E-02  0.353E-02
   3.005  0.961E-01  0.882E-01  0.395E-02  0.395E-02
   3.015  0.100E+00  0.914E-01  0.445E-02  0.445E-02
   3.025  0.105E+00  0.945E-01  0.503E-02  0.503E-02
   3.035  0.109E+00  0.975E-01  0.569E-02  0.569E-02
   3.045  0.113E+00  0.100E+00  0.645E-02  0.645E-02
   3.055  0.118E+00  0.103E+00  0.731E-02  0.731E-02
   3.065  0.122E+00  0.105E+00  0.826E-02  0.826E-02
   3.075  0.126E+00  0.108E+00  0.930E-02  0.930E-02
   3.085  0.130E+00  0.109E+00  0.104E-01  0.104E-01
   3.095  0.134E+00  0.111E+00  0.117E-01  0.117E-01
   3.105  0.137E+00  0.111E+00  0.129E-01  0.129E-01
   3.115  0.140E+00  0.112E+00  0.143E-01  0.143E-01
   3.125  0.143E+00  0.112E+00  0.157E-01  0.157E-01
   3.135  0.145E+00  0.111E+00  0.171E-01  0.171E-01
   3.145  0.147E+00  0.110E+00  0.186E-01  0.186E-01
   3.155  0.148E+00  0.108E+00  0.201E-01  0.201E-01
   3.165  0.149E+00  0.106E+00  0.215E-01  0.215E-01
   3.175  0.149E+00  0.104E+00  0.229E-01  0.229E-01
   3.185  0.149E+00  0.100E+00  0.243E-01  0.243E-01
   3.195  0.148E+00  0.971E-01  0.255E-01  0.255E-01
   3.205  0.147E+00  0.934E-01  0.267E-01  0.267E-01
   3.215  0.145E+00  0.894E-01  0.278E-01  0.278E-01
   3.225  0.143E+00  0.853E-01  0.288E-01  0.288E-01
   3.235  0.140E+00  0.811E-01  0.297E-01  0.297E-01
   3.245  0.138E+00  0.768E-01  0.305E-01  0.305E-01
   3.255  0.135E+00  0.727E-01  0.312E-01  0.312E-01
   3.265  0.132E+00  0.687E-01  0.318E-01  0.318E-01
   3.275  0.129E+00  0.649E-01  0.323E-01  0.323E-01
   3.285  0.127E+00  0.615E-01  0.327E-01  0.327E-01
   3.295  0.125E+00  0.584E-01  0.331E-01  0.331E-01
   3.305  0.123E+00  0.557E-01  0.335E-01  0.335E-01
   3.315  0.121E+00  0.535E-01  0.338E-01  0.338E-01
   3.325  0.120E+00  0.518E-01  0.342E-01  0.342E-01
   3.335  0.120E+00  0.506E-01  0.345E-01  0.345E-01
   3.345  0.120E+00  0.500E-01  0.349E-01  0.349E-01
   3.355  0.120E+00  0.498E-01  0.353E-01  0.353E-01
   3.365  0.121E+00  0.500E-01  0.357E-01  0.357E-01
   3.375  0.123E+00  0.508E-01  0.362E-01  0.362E-01
   3.385  0.125E+00  0.519E-01  0.367E-01  0.367E-01
   3.395  0.128E+00  0.533E-01  0.372E-01  0.372E-01
   3.405  0.130E+00  0.550E-01  0.377E-01  0.377E-01
   3.415  0.133E+00  0.569E-01  0.382E-01  0.382E-01
   3.425  0.137E+00  0.590E-01  0.387E-01  0.387E-01
   3.435  0.140E+00  0.612E-01  0.392E-01  0.392E-01
   3.445  0.143E+00  0.635E-01  0.397E-01  0.397E-01
   3.455  0.146E+00  0.658E-01  0.401E-01  0.401E-01
   3.465  0.149E+00  0.680E-01  0.404E-01  0.404E-01
   3.475  0.152E+00  0.703E-01  0.407E-01  0.407E-01
   3.485  0.154E+00  0.725E-01  0.408E-01  0.408E-01
   3.495  0.156E+00  0.747E-01  0.409E-01  0.409E-01
   3.505  0.159E+00  0.768E-01  0.409E-01  0.409E-01
   3.515  0.160E+00  0.789E-01  0.408E-01  0.408E-01
   3.525  0.162E+00  0.809E-01  0.406E-01  0.406E-01
   3.535  0.164E+00  0.830E-01  0.404E-01  0.404E-01
   3.545  0.165E+00  0.851E-01  0.401E-01  0.401E-01
   3.555  0.167E+00  0.872E-01  0.398E-01  0.398E-01
   3.565  0.168E+00  0.893E-01  0.394E-01  0.394E-01
   3.575  0.170E+00  0.915E-01  0.390E-01  0.390E-01
   3.585  0.171E+00  0.937E-01  0.387E-01  0.387E-01
   3.595  0.173E+00  0.960E-01  0.384E-01  0.384E-01
   3.605  0.174E+00  0.982E-01  0.381E-01  0.381E-01
   3.615  0.176E+00  0.100E+00  0.379E-01  0.379E-01
   3.625  0.178E+00  0.102E+00  0.378E-01  0.378E-01
   3.635  0.180E+00  0.104E+00  0.378E-01  0.378E-01
   3.645  0.182E+00  0.106E+00  0.378E-01  0.378E-01
   3.655  0.183E+00  0.108E+00  0.380E-01  0.380E-01
   3.665  0.185E+00  0.109E+00  0.382E-01  0.382E-01
   3.675  0.186E+00  0.109E+00  0.386E-01  0.386E-01
   3.685  0.187E+00  0.109E+00  0.390E-01  0.390E-01
   3.695  0.188E+00  0.109E+00  0.396E-01  0.396E-01
   3.705  0.188E+00  0.108E+00  0.402E-01  0.402E-01
   3.715  0.188E+00  0.106E+00  0.408E-01  0.408E-01
   3.725  0.187E+00  0.104E+00  0.415E-01  0.415E-01
   3.735  0.186E+00  0.102E+00  0.421E-01  0.421E-01
   3.745  0.184E+00  0.986E-01  0.428E-01  0.428E-01
   3.755  0.182E+00  0.951E-01  0.434E-01  0.434E-01
   3.765  0.179E+00  0.912E-01  0.439E-01  0.439E-01
   3.775  0.176E+00  0.872E-01  0.443E-01  0.443E-01
   3.785  0.172E+00  0.831E-01  0.447E-01  0.447E-01
   3.795  0.169E+00  0.790E-01  0.449E-01  0.449E-01
   3.805  0.165E+00  0.750E-01  0.449E-01  0.449E-01
   3.815  0.161E+00  0.711E-01  0.449E-01  0.449E-01
   3.825  0.157E+00  0.675E-01  0.447E-01  0.447E-01
   3.835  0.153E+00  0.642E-01  0.443E-01  0.443E-01
   3.845  0.149E+00  0.612E-01  0.438E-01  0.438E-01
   3.855  0.145E+00  0.586E-01  0.432E-01  0.432E-01
   3.865  0.141E+00  0.563E-01  0.425E-01  0.425E-01
   3.875  0.138E+00  0.544E-01  0.417E-01  0.417E-01
   3.885  0.134E+00  0.526E-01  0.408E-01  0.408E-01
   3.895  0.131E+00  0.511E-01  0.398E-01  0.398E-01
   3.905  0.127E+00  0.497E-01  0.388E-01  0.388E-01
   3.915  0.124E+00  0.484E-01  0.377E-01  0.377E-01
   3.925  0.120E+00  0.471E-01  0.366E-01  0.366E-01
   3.935  0.117E+00  0.458E-01  0.354E-01  0.354E-01
   3.945  0.113E+00  0.443E-01  0.343E-01  0.343E-01
   3.955  0.109E+00  0.427E-01  0.332E-01  0.332E-01
   3.965  0.105E+00  0.410E-01  0.320E-01  0.320E-01
   3.975  0.101E+00  0.391E-01  0.309E-01  0.309E-01
   3.985  0.966E-01  0.370E-01  0.298E-01  0.298E-01
   3.995  0.922E-01  0.347E-01  0.287E-01  0.287E-01
   4.005  0.877E-01  0.323E-01  0.277E-01  0.277E-01
   4.015  0.832E-01  0.299E-01  0.267E-01  0.267E-01
   4.025  0.787E-01  0.274E-01  0.257E-01  0.257E-01
   4.035  0.744E-01  0.248E-01  0.248E-01  0.248E-01
   4.045  0.702E-01  0.223E-01  0.239E-01  0.239E-01
   4.055  0.661E-01  0.199E-01  0.231E-01  0.231E-01
   4.065  0.623E-01  0.176E-01  0.224E-01  0.224E-01
   4.075  0.588E-01  0.154E-01  0.217E-01  0.217E-01
   4.085  0.556E-01  0.133E-01  0.212E-01  0.212E-01
   4.095  0.528E-01  0.115E-01  0.207E-01  0.207E-01
   4.105  0.504E-01  0.978E-02  0.203E-01  0.203E-01
   4.115  0.484E-01  0.829E-02  0.200E-01  0.200E-01
   4.125  0.467E-01  0.698E-02  0.199E-01  0.199E-01
   4.135  0.455E-01  0.584E-02  0.198E-01  0.198E-01
   4.145  0.447E-01  0.487E-02  0.199E-01  0.199E-01
   4.155  0.443E-01  0.406E-02  0.201E-01  0.201E-01
   4.165  0.442E-01  0.338E-02  0.204E-01  0.204E-01
   4.175  0.445E-01  0.282E-02  0.208E-01  0.208E-01
   4.185  0.451E-01  0.237E-02  0.213E-01  0.213E-01
   4.195  0.459E-01  0.201E-02  0.219E-01  0.219E-01
   4.205  0.469E-01  0.173E-02  0.226E-01  0.226E-01
   4.215  0.482E-01  0.150E-02  0.233E-01  0.233E-01
   4.225  0.495E-01  0.133E-02  0.241E-01  0.241E-01
   4.235  0.509E-01  0.120E-02  0.248E-01  0.248E-01
   4.245  0.523E-01  0.110E-02  0.256E-01  0.256E-01
   4.255  0.537E-01  0.102E-02  0.263E-01  0.263E-01
   4.265  0.549E-01  0.965E-03  0.270E-01  0.270E-01
   4.275  0.561E-01  0.923E-03  0.276E-01  0.276E-01
   4.285  0.571E-01  0.892E-03  0.281E-01  0.281E-01
   4.295  0.579E-01  0.868E-03  0.285E-01  0.285E-01
   4.305  0.585E-01  0.851E-03  0.288E-01  0.288E-01
   4.315  0.588E-01  0.837E-03  0.290E-01  0.290E-01
   4.325  0.590E-01  0.827E-03  0.291E-01  0.291E-01
   4.335  0.589E-01  0.819E-03  0.290E-01  0.290E-01
   4.345  0.585E-01  0.812E-03  0.289E-01  0.289E-01
   4.355  0.580E-01  0.806E-03  0.286E-01  0.286E-01
   4.365  0.573E-01  0.801E-03  0.283E-01  0.283E-01
   4.375  0.564E-01  0.795E-03  0.278E-01  0.278E-01
   4.385  0.554E-01  0.789E-03  0.273E-01  0.273E-01
   4.395  0.543E-01  0.782E-03  0.267E-01  0.267E-01
   4.405  0.530E-01  0.774E-03  0.261E-01  0.261E-01
   4.415  0.517E-01  0.765E-03  0.255E-01  0.255E-01
   4.425  0.504E-01  0.754E-03  0.248E-01  0.248E-01
   4.435  0.490E-01  0.741E-03  0.241E-01  0.241E-01
   4.445  0.476E-01  0.727E-03  0.234E-01  0.234E-01
   4.455  0.463E-01  0.712E-03  0.228E-01  0.228E-01
   4.465  0.449E-01  0.696E-03  0.221E-01  0.221E-01
   4.475  0.436E-01  0.678E-03  0.215E-01  0.215E-01
   4.485  0.423E-01  0.660E-03  0.208E-01  0.208E-01
   4.495  0.411E-01  0.641E-03  0.202E-01  0.202E-01
   4.505  0.399E-01  0.623E-03  0.196E-01  0.196E-01
   4.515  0.388E-01  0.605E-03  0.191E-01  0.191E-01
   4.525  0.377E-01  0.588E-03  0.186E-01  0.186E-01
   4.535  0.367E-01  0.572E-03  0.181E-01  0.181E-01
   4.545  0.358E-01  0.558E-03  0.176E-01  0.176E-01
   4.555  0.349E-01  0.546E-03  0.172E-01  0.172E-01
   4.565  0.340E-01  0.537E-03  0.167E-01  0.167E-01
   4.575  0.332E-01  0.529E-03  0.163E-01  0.163E-01
   4.585  0.324E-01  0.525E-03  0.159E-01  0.159E-01
   4.595  0.317E-01  0.523E-03  0.156E-01  0.156E-01
   4.605  0.310E-01  0.524E-03  0.152E-01  0.152E-01
   4.615  0.303E-01  0.527E-03  0.149E-01  0.149E-01
   4.625  0.296E-01  0.533E-03  0.145E-01  0.145E-01
   4.635  0.290E-01  0.541E-03  0.142E-01  0.142E-01
   4.645  0.284E-01  0.550E-03  0.139E-01  0.139E-01
   4.655  0.278E-01  0.561E-03  0.136E-01  0.136E-01
   4.665  0.273E-01  0.573E-03  0.134E-01  0.134E-01
   4.675  0.269E-01  0.584E-03  0.131E-01  0.131E-01
   4.685  0.265E-01  0.596E-03  0.130E-01  0.130E-01
   4.695  0.263E-01  0.606E-03  0.128E-01  0.128E-01
   4.705  0.262E-01  0.616E-03  0.128E-01  0.128E-01
   4.715  0.262E-01  0.624E-03  0.128E-01  0.128E-01
   4.725  0.264E-01  0.629E-03  0.129E-01  0.129E-01
   4.735  0.268E-01  0.633E-03  0.131E-01  0.131E-01
   4.745  0.275E-01  0.634E-03  0.134E-01  0.134E-01
   4.755  0.283E-01  0.633E-03  0.138E-01  0.138E-01
   4.765  0.293E-01  0.629E-03  0.143E-01  0.143E-01
   4.775  0.306E-01  0.623E-03  0.150E-01  0.150E-01
   4.785  0.320E-01  0.615E-03  0.157E-01  0.157E-01
   4.795  0.336E-01  0.606E-03  0.165E-01  0.165E-01
   4.805  0.354E-01  0.596E-03  0.174E-01  0.174E-01
   4.815  0.372E-01  0.585E-03  0.183E-01  0.183E-01
   4.825  0.391E-01  0.574E-03  0.193E-01  0.193E-01
   4.835  0.410E-01  0.563E-03  0.202E-01  0.202E-01
   4.845  0.429E-01  0.553E-03  0.212E-01  0.212E-01
   4.855  0.447E-01  0.543E-03  0.221E-01  0.221E-01
   4.865  0.464E-01  0.535E-03  0.229E-01  0.229E-01
   4.875  0.479E-01  0.527E-03  0.237E-01  0.237E-01
   4.885  0.493E-01  0.521E-03  0.244E-01  0.244E-01
   4.895  0.504E-01  0.515E-03  0.249E-01  0.249E-01
   4.905  0.512E-01  0.510E-03  0.253E-01  0.253E-01
   4.915  0.518E-01  0.506E-03  0.256E-01  0.256E-01
   4.925  0.521E-01  0.502E-03  0.258E-01  0.258E-01
   4.935  0.522E-01  0.499E-03  0.258E-01  0.258E-01
   4.945  0.520E-01  0.495E-03  0.258E-01  0.258E-01
   4.955  0.516E-01  0.490E-03  0.256E-01  0.256E-01
   4.965  0.510E-01  0.486E-03  0.252E-01  0.252E-01
   4.975  0.501E-01  0.480E-03  0.248E-01  0.248E-01
   4.985  0.492E-01  0.474E-03  0.243E-01  0.243E-01
   4.995  0.481E-01  0.467E-03  0.238E-01  0.238E-01
   5.005  0.468E-01  0.459E-03  0.232E-01  0.232E-01
   5.015  0.456E-01  0.451E-03  0.226E-01  0.226E-01
   5.025  0.442E-01  0.443E-03  0.219E-01  0.219E-01
   5.035  0.429E-01  0.435E-03  0.212E-01  0.212E-01
   5.045  0.415E-01  0.426E-03  0.205E-01  0.205E-01
   5.055  0.401E-01  0.419E-03  0.199E-01  0.199E-01
   5.065  0.388E-01  0.412E-03  0.192E-01  0.192E-01
   5.075  0.376E-01  0.405E-03  0.186E-01  0.186E-01
   5.085  0.363E-01  0.400E-03  0.180E-01  0.180E-01
   5.095  0.351E-01  0.397E-03  0.174E-01  0.174E-01
   5.105  0.340E-01  0.395E-03  0.168E-01  0.168E-01
   5.115  0.329E-01  0.394E-03  0.163E-01  0.163E-01
   5.125  0.318E-01  0.396E-03  0.157E-01  0.157E-01
   5.135  0.308E-01  0.398E-03  0.152E-01  0.152E-01
   5.145  0.298E-01  0.403E-03  0.147E-01  0.147E-01
   5.155  0.288E-01  0.409E-03  0.142E-01  0.142E-01
   5.165  0.278E-01  0.416E-03  0.137E-01  0.137E-01
   5.175  0.268E-01  0.424E-03  0.132E-01  0.132E-01
   5.185  0.257E-01  0.433E-03  0.126E-01  0.126E-01
   5.195  0.246E-01  0.443E-03  0.121E-01  0.121E-01
   5.205  0.235E-01  0.452E-03  0.115E-01  0.115E-01
   5.215  0.224E-01  0.462E-03  0.110E-01  0.110E-01
   5.225  0.213E-01  0.471E-03  0.104E-01  0.104E-01
   5.235  0.202E-01  0.479E-03  0.985E-02  0.985E-02
   5.245  0.191E-01  0.485E-03  0.929E-02  0.929E-02
   5.255  0.180E-01  0.490E-03  0.875E-02  0.875E-02
   5.265  0.170E-01  0.493E-03  0.824E-02  0.824E-02
   5.275  0.160E-01  0.494E-03  0.777E-02  0.777E-02
   5.285  0.152E-01  0.493E-03  0.735E-02  0.735E-02
   5.295  0.145E-01  0.490E-03  0.699E-02  0.699E-02
   5.305  0.139E-01  0.484E-03  0.671E-02  0.671E-02
   5.315  0.135E-01  0.477E-03  0.652E-02  0.652E-02
   5.325  0.133E-01  0.468E-03  0.644E-02  0.644E-02
   5.335  0.134E-01  0.457E-03  0.646E-02  0.646E-02
   5.345  0.137E-01  0.445E-03  0.661E-02  0.661E-02
   5.355  0.142E-01  0.433E-03  0.688E-02  0.688E-02
   5.365  0.150E-01  0.420E-03  0.729E-02  0.729E-02
   5.375  0.161E-01  0.407E-03  0.783E-02  0.783E-02
   5.385  0.174E-01  0.395E-03  0.850E-02  0.850E-02
   5.395  0.190E-01  0.384E-03  0.930E-02  0.930E-02
   5.405  0.208E-01  0.374E-03  0.102E-01  0.102E-01
   5.415  0.229E-01  0.365E-03  0.112E-01  0.112E-01
   5.425  0.251E-01  0.358E-03  0.124E-01  0.124E-01
   5.435  0.275E-01  0.352E-03  0.136E-01  0.136E-01
   5.445  0.300E-01  0.348E-03  0.148E-01  0.148E-01
   5.455  0.325E-01  0.345E-03  0.161E-01  0.161E-01
   5.465  0.351E-01  0.344E-03  0.174E-01  0.174E-01
   5.475  0.376E-01  0.343E-03  0.186E-01  0.186E-01
   5.485  0.401E-01  0.344E-03  0.199E-01  0.199E-01
   5.495  0.424E-01  0.345E-03  0.210E-01  0.210E-01
   5.505  0.445E-01  0.347E-03  0.221E-01  0.221E-01
   5.515  0.463E-01  0.349E-03  0.230E-01  0.230E-01
   5.525  0.479E-01  0.351E-03  0.238E-01  0.238E-01
   5.535  0.492E-01  0.352E-03  0.244E-01  0.244E-01
   5.545  0.502E-01  0.354E-03  0.249E-01  0.249E-01
   5.555  0.509E-01  0.354E-03  0.252E-01  0.252E-01
   5.565  0.512E-01  0.355E-03  0.254E-01  0.254E-01
   5.575  0.512E-01  0.354E-03  0.254E-01  0.254E-01
   5.585  0.509E-01  0.354E-03  0.253E-01  0.253E-01
   5.595  0.503E-01  0.353E-03  0.250E-01  0.250E-01
   5.605  0.495E-01  0.351E-03  0.246E-01  0.246E-01
   5.615  0.485E-01  0.350E-03  0.241E-01  0.241E-01
   5.625  0.474E-01  0.348E-03  0.235E-01  0.235E-01
   5.635  0.461E-01  0.346E-03  0.229E-01  0.229E-01
   5.645  0.447E-01  0.344E-03  0.222E-01  0.222E-01
   5.655  0.433E-01  0.342E-03  0.215E-01  0.215E-01
   5.665  0.419E-01  0.341E-03  0.208E-01  0.208E-01
   5.675  0.405E-01  0.339E-03  0.201E-01  0.201E-01
   5.685  0.392E-01  0.338E-03  0.194E-01  0.194E-01
   5.695  0.379E-01  0.338E-03  0.188E-01  0.188E-01
   5.705  0.366E-01  0.337E-03  0.181E-01  0.181E-01
   5.715  0.354E-01  0.338E-03  0.175E-01  0.175E-01
   5.725  0.343E-01  0.338E-03  0.170E-01  0.170E-01
   5.735  0.332E-01  0.339E-03  0.164E-01  0.164E-01
   5.745  0.320E-01  0.341E-03  0.159E-01  0.159E-01
   5.755  0.309E-01  0.343E-03  0.153E-01  0.153E-01
   5.765  0.298E-01  0.346E-03  0.147E-01  0.147E-01
   5.775  0.287E-01  0.349E-03  0.142E-01  0.142E-01
   5.785  0.275E-01  0.353E-03  0.136E-01  0.136E-01
   5.795  0.262E-01  0.357E-03  0.129E-01  0.129E-01
   5.805  0.249E-01  0.361E-03  0.123E-01  0.123E-01
   5.815  0.236E-01  0.365E-03  0.116E-01  0.116E-01
   5.825  0.222E-01  0.369E-03  0.109E-01  0.109E-01
   5.835  0.207E-01  0.372E-03  0.102E-01  0.102E-01
   5.845  0.192E-01  0.375E-03  0.942E-02  0.942E-02
   5.855  0.177E-01  0.377E-03  0.867E-02  0.867E-02
   5.865  0.162E-01  0.378E-03  0.793E-02  0.793E-02
   5.875  0.148E-01  0.378E-03  0.720E-02  0.720E-02
   5.885  0.134E-01  0.376E-03  0.650E-02  0.650E-02
   5.895  0.120E-01  0.373E-03  0.583E-02  0.583E-02
   5.905  0.108E-01  0.368E-03  0.521E-02  0.521E-02
   5.915  0.965E-02  0.362E-03  0.464E-02  0.464E-02
   5.925  0.863E-02  0.355E-03  0.414E-02  0.414E-02
   5.935  0.776E-02  0.346E-03  0.370E-02  0.370E-02
   5.945  0.703E-02  0.337E-03  0.335E-02  0.335E-02
   5.955  0.647E-02  0.327E-03  0.307E-02  0.307E-02
   5.965  0.609E-02  0.317E-03  0.289E-02  0.289E-02
   5.975  0.589E-02  0.307E-03  0.279E-02  0.279E-02
   5.985  0.588E-02  0.298E-03  0.279E-02  0.279E-02
   5.995  0.607E-02  0.289E-03  0.289E-02  0.289E-02
   6.005  0.648E-02  0.281E-03  0.310E-02  0.310E-02
   6.015  0.710E-02  0.274E-03  0.341E-02  0.341E-02
   6.025  0.795E-02  0.269E-03  0.384E-02  0.384E-02
   6.035  0.902E-02  0.265E-03  0.438E-02  0.438E-02
   6.045  0.103E-01  0.263E-03  0.503E-02  0.503E-02
   6.055  0.119E-01  0.262E-03  0.580E-02  0.580E-02
   6.065  0.136E-01  0.262E-03  0.668E-02  0.668E-02
   6.075  0.156E-01  0.264E-03  0.766E-02  0.766E-02
   6.085  0.177E-01  0.267E-03  0.874E-02  0.874E-02
   6.095  0.201E-01  0.271E-03  0.990E-02  0.990E-02
   6.105  0.225E-01  0.276E-03  0.111E-01  0.111E-01
   6.115  0.251E-01  0.281E-03  0.124E-01  0.124E-01
   6.125  0.278E-01  0.286E-03  0.137E-01  0.137E-01
   6.135  0.304E-01  0.292E-03  0.151E-01  0.151E-01
   6.145  0.331E-01  0.298E-03  0.164E-01  0.164E-01
   6.155  0.356E-01  0.304E-03  0.177E-01  0.177E-01
   6.165  0.380E-01  0.309E-03  0.189E-01  0.189E-01
   6.175  0.403E-01  0.314E-03  0.200E-01  0.200E-01
   6.185  0.423E-01  0.318E-03  0.210E-01  0.210E-01
   6.195  0.441E-01  0.321E-03  0.219E-01  0.219E-01
   6.205  0.456E-01  0.324E-03  0.226E-01  0.226E-01
   6.215  0.468E-01  0.327E-03  0.232E-01  0.232E-01
   6.225  0.477E-01  0.328E-03  0.237E-01  0.237E-01
   6.235  0.483E-01  0.329E-03  0.240E-01  0.240E-01
   6.245  0.486E-01  0.328E-03  0.241E-01  0.241E-01
   6.255  0.486E-01  0.328E-03  0.241E-01  0.241E-01
   6.265  0.484E-01  0.326E-03  0.240E-01  0.240E-01
   6.275  0.480E-01  0.323E-03  0.238E-01  0.238E-01
   6.285  0.474E-01  0.320E-03  0.235E-01  0.235E-01
   6.295  0.466E-01  0.317E-03  0.232E-01  0.232E-01
   6.305  0.457E-01  0.313E-03  0.227E-01  0.227E-01
   6.315  0.448E-01  0.309E-03  0.222E-01  0.222E-01
   6.325  0.438E-01  0.304E-03  0.217E-01  0.217E-01
   6.335  0.427E-01  0.300E-03  0.212E-01  0.212E-01
   6.345  0.415E-01  0.296E-03  0.206E-01  0.206E-01
   6.355  0.404E-01  0.292E-03  0.200E-01  0.200E-01
   6.365  0.392E-01  0.289E-03  0.194E-01  0.194E-01
   6.375  0.379E-01  0.287E-03  0.188E-01  0.188E-01
   6.385  0.366E-01  0.286E-03  0.182E-01  0.182E-01
   6.395  0.353E-01  0.285E-03  0.175E-01  0.175E-01
   6.405  0.338E-01  0.286E-03  0.168E-01  0.168E-01
   6.415  0.323E-01  0.288E-03  0.160E-01  0.160E-01
   6.425  0.307E-01  0.291E-03  0.152E-01  0.152E-01
   6.435  0.291E-01  0.295E-03  0.144E-01  0.144E-01
   6.445  0.273E-01  0.299E-03  0.135E-01  0.135E-01
   6.455  0.256E-01  0.304E-03  0.126E-01  0.126E-01
   6.465  0.238E-01  0.309E-03  0.117E-01  0.117E-01
   6.475  0.219E-01  0.314E-03  0.108E-01  0.108E-01
   6.485  0.201E-01  0.319E-03  0.989E-02  0.989E-02
   6.495  0.183E-01  0.324E-03  0.898E-02  0.898E-02
   6.505  0.165E-01  0.327E-03  0.809E-02  0.809E-02
   6.515  0.148E-01  0.329E-03  0.724E-02  0.724E-02
   6.525  0.132E-01  0.330E-03  0.642E-02  0.642E-02
   6.535  0.117E-01  0.330E-03  0.566E-02  0.566E-02
   6.545  0.102E-01  0.328E-03  0.496E-02  0.496E-02
   6.555  0.895E-02  0.324E-03  0.431E-02  0.431E-02
   6.565  0.779E-02  0.320E-03  0.373E-02  0.373E-02
   6.575  0.676E-02  0.314E-03  0.322E-02  0.322E-02
   6.585  0.587E-02  0.307E-03  0.278E-02  0.278E-02
   6.595  0.512E-02  0.300E-03  0.241E-02  0.241E-02
   6.605  0.450E-02  0.292E-03  0.210E-02  0.210E-02
   6.615  0.401E-02  0.285E-03  0.186E-02  0.186E-02
   6.625  0.365E-02  0.277E-03  0.169E-02  0.169E-02
   6.635  0.343E-02  0.271E-03  0.158E-02  0.158E-02
   6.645  0.333E-02  0.265E-03  0.153E-02  0.153E-02
   6.655  0.336E-02  0.261E-03  0.155E-02  0.155E-02
   6.665  0.352E-02  0.257E-03  0.163E-02  0.163E-02
   6.675  0.381E-02  0.255E-03  0.178E-02  0.178E-02
   6.685  0.424E-02  0.255E-03  0.199E-02  0.199E-02
   6.695  0.481E-02  0.256E-03  0.228E-02  0.228E-02
   6.705  0.553E-02  0.258E-03  0.264E-02  0.264E-02
   6.715  0.641E-02  0.261E-03  0.307E-02  0.307E-02
   6.725  0.744E-02  0.266E-03  0.359E-02  0.359E-02
   6.735  0.865E-02  0.271E-03  0.419E-02  0.419E-02
   6.745  0.100E-01  0.278E-03  0.487E-02  0.487E-02
   6.755  0.116E-01  0.285E-03  0.563E-02  0.563E-02
   6.765  0.133E-01  0.292E-03  0.648E-02  0.648E-02
   6.775  0.151E-01  0.300E-03  0.740E-02  0.740E-02
   6.785  0.171E-01  0.307E-03  0.840E-02  0.840E-02
   6.795  0.192E-01  0.315E-03  0.946E-02  0.946E-02
   6.805  0.215E-01  0.323E-03  0.106E-01  0.106E-01
   6.815  0.238E-01  0.330E-03  0.117E-01  0.117E-01
   6.825  0.261E-01  0.337E-03  0.129E-01  0.129E-01
   6.835  0.285E-01  0.343E-03  0.141E-01  0.141E-01
   6.845  0.308E-01  0.349E-03  0.152E-01  0.152E-01
   6.855  0.331E-01  0.354E-03  0.164E-01  0.164E-01
   6.865  0.353E-01  0.358E-03  0.175E-01  0.175E-01
   6.875  0.373E-01  0.361E-03  0.185E-01  0.185E-01
   6.885  0.392E-01  0.363E-03  0.194E-01  0.194E-01
   6.895  0.408E-01  0.364E-03  0.202E-01  0.202E-01
   6.905  0.423E-01  0.364E-03  0.210E-01  0.210E-01
   6.915  0.435E-01  0.363E-03  0.216E-01  0.216E-01
   6.925  0.444E-01  0.361E-03  0.220E-01  0.220E-01
   6.935  0.451E-01  0.357E-03  0.224E-01  0.224E-01
   6.945  0.456E-01  0.353E-03  0.226E-01  0.226E-01
   6.955  0.458E-01  0.347E-03  0.227E-01  0.227E-01
   6.965  0.457E-01  0.341E-03  0.227E-01  0.227E-01
   6.975  0.455E-01  0.335E-03  0.226E-01  0.226E-01
   6.985  0.450E-01  0.328E-03  0.223E-01  0.223E-01
   6.995  0.443E-01  0.320E-03  0.220E-01  0.220E-01
   7.005  0.434E-01  0.314E-03  0.216E-01  0.216E-01
   7.015  0.424E-01  0.307E-03  0.210E-01  0.210E-01
   7.025  0.412E-01  0.302E-03  0.204E-01  0.204E-01
   7.035  0.398E-01  0.298E-03  0.198E-01  0.198E-01
   7.045  0.383E-01  0.295E-03  0.190E-01  0.190E-01
   7.055  0.367E-01  0.293E-03  0.182E-01  0.182E-01
   7.065  0.350E-01  0.294E-03  0.174E-01  0.174E-01
   7.075  0.332E-01  0.296E-03  0.165E-01  0.165E-01
   7.085  0.313E-01  0.300E-03  0.155E-01  0.155E-01
   7.095  0.294E-01  0.306E-03  0.145E-01  0.145E-01
   7.105  0.274E-01  0.313E-03  0.135E-01  0.135E-01
   7.115  0.254E-01  0.322E-03  0.125E-01  0.125E-01
   7.125  0.234E-01  0.331E-03  0.115E-01  0.115E-01
   7.135  0.214E-01  0.342E-03  0.105E-01  0.105E-01
   7.145  0.194E-01  0.353E-03  0.954E-02  0.954E-02
   7.155  0.176E-01  0.363E-03  0.860E-02  0.860E-02
   7.165  0.158E-01  0.374E-03  0.769E-02  0.769E-02
   7.175  0.141E-01  0.384E-03  0.684E-02  0.684E-02
   7.185  0.125E-01  0.392E-03  0.605E-02  0.605E-02
   7.195  0.110E-01  0.400E-03  0.531E-02  0.531E-02
   7.205  0.971E-02  0.406E-03  0.465E-02  0.465E-02
   7.215  0.852E-02  0.411E-03  0.406E-02  0.406E-02
   7.225  0.748E-02  0.414E-03  0.353E-02  0.353E-02
   7.235  0.658E-02  0.417E-03  0.308E-02  0.308E-02
   7.245  0.581E-02  0.418E-03  0.270E-02  0.270E-02
   7.255  0.517E-02  0.417E-03  0.238E-02  0.238E-02
   7.265  0.466E-02  0.417E-03  0.212E-02  0.212E-02
   7.275  0.426E-02  0.415E-03  0.192E-02  0.192E-02
   7.285  0.397E-02  0.413E-03  0.178E-02  0.178E-02
   7.295  0.379E-02  0.411E-03  0.169E-02  0.169E-02
   7.305  0.370E-02  0.409E-03  0.164E-02  0.164E-02
   7.315  0.370E-02  0.408E-03  0.164E-02  0.164E-02
   7.325  0.378E-02  0.406E-03  0.169E-02  0.169E-02
   7.335  0.396E-02  0.405E-03  0.178E-02  0.178E-02
   7.345  0.423E-02  0.405E-03  0.191E-02  0.191E-02
   7.355  0.458E-02  0.405E-03  0.209E-02  0.209E-02
   7.365  0.504E-02  0.406E-03  0.232E-02  0.232E-02
   7.375  0.560E-02  0.409E-03  0.259E-02  0.259E-02
   7.385  0.627E-02  0.412E-03  0.293E-02  0.293E-02
   7.395  0.706E-02  0.416E-03  0.332E-02  0.332E-02
   7.405  0.798E-02  0.421E-03  0.378E-02  0.378E-02
   7.415  0.903E-02  0.428E-03  0.430E-02  0.430E-02
   7.425  0.102E-01  0.436E-03  0.490E-02  0.490E-02
   7.435  0.116E-01  0.446E-03  0.556E-02  0.556E-02
   7.445  0.131E-01  0.458E-03  0.630E-02  0.630E-02
   7.455  0.147E-01  0.472E-03  0.711E-02  0.711E-02
   7.465  0.164E-01  0.488E-03  0.798E-02  0.798E-02
   7.475  0.183E-01  0.506E-03  0.891E-02  0.891E-02
   7.485  0.203E-01  0.526E-03  0.989E-02  0.989E-02
   7.495  0.224E-01  0.548E-03  0.109E-01  0.109E-01
   7.505  0.245E-01  0.572E-03  0.120E-01  0.120E-01
   7.515  0.266E-01  0.596E-03  0.130E-01  0.130E-01
   7.525  0.288E-01  0.622E-03  0.141E-01  0.141E-01
   7.535  0.308E-01  0.649E-03  0.151E-01  0.151E-01
   7.545  0.328E-01  0.675E-03  0.161E-01  0.161E-01
   7.555  0.347E-01  0.702E-03  0.170E-01  0.170E-01
   7.565  0.365E-01  0.727E-03  0.179E-01  0.179E-01
   7.575  0.380E-01  0.751E-03  0.186E-01  0.186E-01
   7.585  0.394E-01  0.774E-03  0.193E-01  0.193E-01
   7.595  0.405E-01  0.795E-03  0.199E-01  0.199E-01
   7.605  0.414E-01  0.814E-03  0.203E-01  0.203E-01
   7.615  0.420E-01  0.831E-03  0.206E-01  0.206E-01
   7.625  0.424E-01  0.846E-03  0.208E-01  0.208E-01
   7.635  0.425E-01  0.859E-03  0.208E-01  0.208E-01
   7.645  0.423E-01  0.869E-03  0.207E-01  0.207E-01
   7.655  0.419E-01  0.879E-03  0.205E-01  0.205E-01
   7.665  0.412E-01  0.887E-03  0.202E-01  0.202E-01
   7.675  0.403E-01  0.894E-03  0.197E-01  0.197E-01
   7.685  0.392E-01  0.901E-03  0.191E-01  0.191E-01
   7.695  0.378E-01  0.907E-03  0.185E-01  0.185E-01
   7.705  0.363E-01  0.914E-03  0.177E-01  0.177E-01
   7.715  0.346E-01  0.922E-03  0.168E-01  0.168E-01
   7.725  0.328E-01  0.930E-03  0.159E-01  0.159E-01
   7.735  0.309E-01  0.939E-03  0.150E-01  0.150E-01
   7.745  0.289E-01  0.949E-03  0.140E-01  0.140E-01
   7.755  0.269E-01  0.960E-03  0.130E-01  0.130E-01
   7.765  0.248E-01  0.973E-03  0.119E-01  0.119E-01
   7.775  0.228E-01  0.986E-03  0.109E-01  0.109E-01
   7.785  0.208E-01  0.100E-02  0.991E-02  0.991E-02
   7.795  0.189E-01  0.101E-02  0.895E-02  0.895E-02
   7.805  0.171E-01  0.103E-02  0.804E-02  0.804E-02
   7.815  0.154E-01  0.104E-02  0.719E-02  0.719E-02
   7.825  0.139E-01  0.106E-02  0.641E-02  0.641E-02
   7.835  0.125E-01  0.107E-02  0.570E-02  0.570E-02
   7.845  0.112E-01  0.108E-02  0.507E-02  0.507E-02
   7.855  0.101E-01  0.109E-02  0.452E-02  0.452E-02
   7.865  0.922E-02  0.110E-02  0.406E-02  0.406E-02
   7.875  0.846E-02  0.111E-02  0.368E-02  0.368E-02
   7.885  0.787E-02  0.112E-02  0.338E-02  0.338E-02
   7.895  0.743E-02  0.112E-02  0.315E-02  0.315E-02
   7.905  0.714E-02  0.113E-02  0.301E-02  0.301E-02
   7.915  0.699E-02  0.113E-02  0.293E-02  0.293E-02
   7.925  0.699E-02  0.114E-02  0.293E-02  0.293E-02
   7.935  0.712E-02  0.114E-02  0.299E-02  0.299E-02
   7.945  0.739E-02  0.114E-02  0.312E-02  0.312E-02
   7.955  0.780E-02  0.115E-02  0.333E-02  0.333E-02
   7.965  0.834E-02  0.115E-02  0.360E-02  0.360E-02
   7.975  0.903E-02  0.116E-02  0.394E-02  0.394E-02
   7.985  0.985E-02  0.116E-02  0.435E-02  0.435E-02
   7.995  0.108E-01  0.117E-02  0.483E-02  0.483E-02
   8.005  0.120E-01  0.117E-02  0.539E-02  0.539E-02
   8.015  0.132E-01  0.117E-02  0.602E-02  0.602E-02
   8.025  0.146E-01  0.117E-02  0.673E-02  0.673E-02
   8.035  0.162E-01  0.117E-02  0.751E-02  0.751E-02
   8.045  0.179E-01  0.117E-02  0.836E-02  0.836E-02
   8.055  0.197E-01  0.116E-02  0.926E-02  0.926E-02
   8.065  0.216E-01  0.115E-02  0.102E-01  0.102E-01
   8.075  0.235E-01  0.114E-02  0.112E-01  0.112E-01
   8.085  0.255E-01  0.112E-02  0.122E-01  0.122E-01
   8.095  0.275E-01  0.111E-02  0.132E-01  0.132E-01
   8.105  0.295E-01  0.109E-02  0.142E-01  0.142E-01
   8.115  0.314E-01  0.107E-02  0.152E-01  0.152E-01
   8.125  0.332E-01  0.105E-02  0.161E-01  0.161E-01
   8.135  0.348E-01  0.103E-02  0.169E-01  0.169E-01
   8.145  0.362E-01  0.102E-02  0.176E-01  0.176E-01
   8.155  0.373E-01  0.101E-02  0.182E-01  0.182E-01
   8.165  0.382E-01  0.100E-02  0.186E-01  0.186E-01
   8.175  0.388E-01  0.998E-03  0.189E-01  0.189E-01
   8.185  0.391E-01  0.100E-02  0.191E-01  0.191E-01
   8.195  0.391E-01  0.101E-02  0.191E-01  0.191E-01
   8.205  0.388E-01  0.103E-02  0.189E-01  0.189E-01
   8.215  0.382E-01  0.105E-02  0.186E-01  0.186E-01
   8.225  0.373E-01  0.107E-02  0.181E-01  0.181E-01
   8.235  0.361E-01  0.110E-02  0.175E-01  0.175E-01
   8.245  0.347E-01  0.112E-02  0.168E-01  0.168E-01
   8.255  0.331E-01  0.115E-02  0.160E-01  0.160E-01
   8.265  0.313E-01  0.118E-02  0.151E-01  0.151E-01
   8.275  0.294E-01  0.120E-02  0.141E-01  0.141E-01
   8.285  0.275E-01  0.121E-02  0.131E-01  0.131E-01
   8.295  0.255E-01  0.122E-02  0.122E-01  0.122E-01
   8.305  0.236E-01  0.122E-02  0.112E-01  0.112E-01
   8.315  0.217E-01  0.121E-02  0.102E-01  0.102E-01
   8.325  0.199E-01  0.119E-02  0.935E-02  0.935E-02
   8.335  0.182E-01  0.116E-02  0.853E-02  0.853E-02
   8.345  0.167E-01  0.112E-02  0.779E-02  0.779E-02
   8.355  0.154E-01  0.108E-02  0.715E-02  0.715E-02
   8.365  0.142E-01  0.102E-02  0.660E-02  0.660E-02
   8.375  0.133E-01  0.961E-03  0.617E-02  0.617E-02
   8.385  0.126E-01  0.895E-03  0.585E-02  0.585E-02
   8.395  0.121E-01  0.825E-03  0.565E-02  0.565E-02
   8.405  0.119E-01  0.753E-03  0.557E-02  0.557E-02
   8.415  0.119E-01  0.681E-03  0.560E-02  0.560E-02
   8.425  0.121E-01  0.609E-03  0.574E-02  0.574E-02
   8.435  0.125E-01  0.539E-03  0.598E-02  0.598E-02
   8.445  0.131E-01  0.472E-03  0.631E-02  0.631E-02
   8.455  0.139E-01  0.410E-03  0.673E-02  0.673E-02
   8.465  0.148E-01  0.352E-03  0.722E-02  0.722E-02
   8.475  0.158E-01  0.299E-03  0.777E-02  0.777E-02
   8.485  0.170E-01  0.251E-03  0.835E-02  0.835E-02
   8.495  0.181E-01  0.209E-03  0.896E-02  0.896E-02
   8.505  0.193E-01  0.172E-03  0.959E-02  0.959E-02
   8.515  0.205E-01  0.140E-03  0.102E-01  0.102E-01
   8.525  0.217E-01  0.113E-03  0.108E-01  0.108E-01
   8.535  0.227E-01  0.904E-04  0.113E-01  0.113E-01
   8.545  0.237E-01  0.714E-04  0.118E-01  0.118E-01
   8.555  0.245E-01  0.558E-04  0.122E-01  0.122E-01
   8.565  0.252E-01  0.432E-04  0.126E-01  0.126E-01
   8.575  0.256E-01  0.331E-04  0.128E-01  0.128E-01
   8.585  0.259E-01  0.250E-04  0.129E-01  0.129E-01
   8.595  0.260E-01  0.188E-04  0.130E-01  0.130E-01
   8.605  0.259E-01  0.139E-04  0.129E-01  0.129E-01
   8.615  0.256E-01  0.102E-04  0.128E-01  0.128E-01
   8.625  0.252E-01  0.742E-05  0.126E-01  0.126E-01
   8.635  0.246E-01  0.533E-05  0.123E-01  0.123E-01
   8.645  0.239E-01  0.379E-05  0.120E-01  0.120E-01
   8.655  0.232E-01  0.267E-05  0.116E-01  0.116E-01
   8.665  0.223E-01  0.186E-05  0.112E-01  0.112E-01
   8.675  0.215E-01  0.128E-05  0.107E-01  0.107E-01
   8.685  0.207E-01  0.871E-06  0.103E-01  0.103E-01
   8.695  0.199E-01  0.588E-06  0.994E-02  0.994E-02
   8.705  0.192E-01  0.392E-06  0.958E-02  0.958E-02
   8.715  0.185E-01  0.259E-06  0.925E-02  0.925E-02
   8.725  0.179E-01  0.169E-06  0.897E-02  0.897E-02
   8.735  0.175E-01  0.109E-06  0.874E-02  0.874E-02
   8.745  0.171E-01  0.699E-07  0.855E-02  0.855E-02
   8.755  0.168E-01  0.442E-07  0.840E-02  0.840E-02
   8.765  0.166E-01  0.277E-07  0.829E-02  0.829E-02
   8.775  0.164E-01  0.171E-07  0.820E-02  0.820E-02
   8.785  0.162E-01  0.105E-07  0.812E-02  0.812E-02
   8.795  0.161E-01  0.637E-08  0.804E-02  0.804E-02
   8.805  0.159E-01  0.382E-08  0.796E-02  0.796E-02
   8.815  0.157E-01  0.227E-08  0.786E-02  0.786E-02
   8.825  0.155E-01  0.133E-08  0.773E-02  0.773E-02
   8.835  0.151E-01  0.774E-09  0.757E-02  0.757E-02
   8.845  0.147E-01  0.445E-09  0.736E-02  0.736E-02
   8.855  0.142E-01  0.253E-09  0.711E-02  0.711E-02
   8.865  0.136E-01  0.142E-09  0.682E-02  0.682E-02
   8.875  0.130E-01  0.792E-10  0.649E-02  0.649E-02
   8.885  0.122E-01  0.436E-10  0.612E-02  0.612E-02
   8.895  0.114E-01  0.238E-10  0.572E-02  0.572E-02
   8.905  0.106E-01  0.128E-10  0.530E-02  0.530E-02
   8.915  0.972E-02  0.683E-11  0.486E-02  0.486E-02
   8.925  0.883E-02  0.361E-11  0.442E-02  0.442E-02
   8.935  0.794E-02  0.188E-11  0.397E-02  0.397E-02
   8.945  0.707E-02  0.973E-12  0.354E-02  0.354E-02
   8.955  0.623E-02  0.497E-12  0.312E-02  0.312E-02
   8.965  0.544E-02  0.252E-12  0.272E-02  0.272E-02
   8.975  0.469E-02  0.125E-12  0.235E-02  0.235E-02
   8.985  0.401E-02  0.623E-13  0.201E-02  0.201E-02
   8.995  0.339E-02  0.300E-13  0.170E-02  0.170E-02
   9.005  0.284E-02  0.148E-13  0.142E-02  0.142E-02
   9.015  0.235E-02  0.724E-14  0.118E-02  0.118E-02
   9.025  0.193E-02  0.212E-14  0.963E-03  0.963E-03
   9.035  0.156E-02  0.250E-15  0.781E-03  0.781E-03
   9.045  0.125E-02  0.199E-15  0.627E-03  0.627E-03
   9.055  0.995E-03  0.156E-15  0.498E-03  0.498E-03
   9.065  0.782E-03  0.122E-15  0.391E-03  0.391E-03
   9.075  0.608E-03  0.942E-16  0.304E-03  0.304E-03
   9.085  0.468E-03  0.721E-16  0.234E-03  0.234E-03
   9.095  0.356E-03  0.547E-16  0.178E-03  0.178E-03
   9.105  0.268E-03  0.410E-16  0.134E-03  0.134E-03
   9.115  0.200E-03  0.305E-16  0.100E-03  0.100E-03
   9.125  0.148E-03  0.224E-16  0.738E-04  0.738E-04
   9.135  0.108E-03  0.163E-16  0.539E-04  0.539E-04
   9.145  0.778E-04  0.118E-16  0.389E-04  0.389E-04
   9.155  0.556E-04  0.840E-17  0.278E-04  0.278E-04
   9.165  0.393E-04  0.593E-17  0.197E-04  0.197E-04
   9.175  0.275E-04  0.414E-17  0.138E-04  0.138E-04
   9.185  0.191E-04  0.287E-17  0.953E-05  0.953E-05
   9.195  0.131E-04  0.196E-17  0.653E-05  0.653E-05
   9.205  0.885E-05  0.133E-17  0.443E-05  0.443E-05
   9.215  0.594E-05  0.891E-18  0.297E-05  0.297E-05
   9.225  0.394E-05  0.591E-18  0.197E-05  0.197E-05
   9.235  0.259E-05  0.388E-18  0.130E-05  0.130E-05
   9.245  0.168E-05  0.252E-18  0.842E-06  0.842E-06
   9.255  0.108E-05  0.162E-18  0.542E-06  0.542E-06
   9.265  0.689E-06  0.103E-18  0.345E-06  0.345E-06
