# E (eV)  dos(E)    pdos(E)
 -21.645  0.371E-05  0.366E-05
 -21.635  0.587E-05  0.578E-05
 -21.625  0.918E-05  0.905E-05
 -21.615  0.142E-04  0.140E-04
 -21.605  0.218E-04  0.215E-04
 -21.595  0.331E-04  0.326E-04
 -21.585  0.497E-04  0.490E-04
 -21.575  0.738E-04  0.728E-04
 -21.565  0.109E-03  0.107E-03
 -21.555  0.158E-03  0.156E-03
 -21.545  0.228E-03  0.225E-03
 -21.535  0.326E-03  0.321E-03
 -21.525  0.460E-03  0.454E-03
 -21.515  0.644E-03  0.635E-03
 -21.505  0.892E-03  0.880E-03
 -21.495  0.122E-02  0.121E-02
 -21.485  0.166E-02  0.164E-02
 -21.475  0.223E-02  0.220E-02
 -21.465  0.297E-02  0.293E-02
 -21.455  0.392E-02  0.387E-02
 -21.445  0.512E-02  0.505E-02
 -21.435  0.662E-02  0.653E-02
 -21.425  0.848E-02  0.836E-02
 -21.415  0.108E-01  0.106E-01
 -21.405  0.135E-01  0.133E-01
 -21.395  0.168E-01  0.166E-01
 -21.385  0.208E-01  0.205E-01
 -21.375  0.254E-01  0.250E-01
 -21.365  0.307E-01  0.303E-01
 -21.355  0.368E-01  0.363E-01
 -21.345  0.438E-01  0.432E-01
 -21.335  0.517E-01  0.509E-01
 -21.325  0.604E-01  0.595E-01
 -21.315  0.700E-01  0.690E-01
 -21.305  0.804E-01  0.793E-01
 -21.295  0.916E-01  0.903E-01
 -21.285  0.104E+00  0.102E+00
 -21.275  0.116E+00  0.115E+00
 -21.265  0.129E+00  0.127E+00
 -21.255  0.143E+00  0.141E+00
 -21.245  0.157E+00  0.154E+00
 -21.235  0.171E+00  0.168E+00
 -21.225  0.185E+00  0.182E+00
 -21.215  0.198E+00  0.195E+00
 -21.205  0.212E+00  0.209E+00
 -21.195  0.225E+00  0.221E+00
 -21.185  0.237E+00  0.234E+00
 -21.175  0.249E+00  0.245E+00
 -21.165  0.260E+00  0.256E+00
 -21.155  0.270E+00  0.266E+00
 -21.145  0.279E+00  0.275E+00
 -21.135  0.288E+00  0.283E+00
 -21.125  0.295E+00  0.291E+00
 -21.115  0.302E+00  0.298E+00
 -21.105  0.308E+00  0.303E+00
 -21.095  0.313E+00  0.308E+00
 -21.085  0.317E+00  0.313E+00
 -21.075  0.321E+00  0.316E+00
 -21.065  0.324E+00  0.319E+00
 -21.055  0.327E+00  0.322E+00
 -21.045  0.329E+00  0.324E+00
 -21.035  0.331E+00  0.326E+00
 -21.025  0.332E+00  0.327E+00
 -21.015  0.333E+00  0.328E+00
 -21.005  0.334E+00  0.329E+00
 -20.995  0.335E+00  0.330E+00
 -20.985  0.335E+00  0.331E+00
 -20.975  0.336E+00  0.331E+00
 -20.965  0.336E+00  0.331E+00
 -20.955  0.337E+00  0.332E+00
 -20.945  0.337E+00  0.332E+00
 -20.935  0.337E+00  0.332E+00
 -20.925  0.337E+00  0.332E+00
 -20.915  0.337E+00  0.332E+00
 -20.905  0.337E+00  0.332E+00
 -20.895  0.337E+00  0.332E+00
 -20.885  0.337E+00  0.332E+00
 -20.875  0.337E+00  0.332E+00
 -20.865  0.337E+00  0.332E+00
 -20.855  0.338E+00  0.333E+00
 -20.845  0.338E+00  0.333E+00
 -20.835  0.338E+00  0.333E+00
 -20.825  0.338E+00  0.333E+00
 -20.815  0.338E+00  0.333E+00
 -20.805  0.338E+00  0.333E+00
 -20.795  0.338E+00  0.333E+00
 -20.785  0.338E+00  0.333E+00
 -20.775  0.338E+00  0.333E+00
 -20.765  0.338E+00  0.333E+00
 -20.755  0.338E+00  0.333E+00
 -20.745  0.338E+00  0.333E+00
 -20.735  0.338E+00  0.333E+00
 -20.725  0.338E+00  0.333E+00
 -20.715  0.338E+00  0.333E+00
 -20.705  0.338E+00  0.333E+00
 -20.695  0.338E+00  0.333E+00
 -20.685  0.338E+00  0.333E+00
 -20.675  0.339E+00  0.333E+00
 -20.665  0.339E+00  0.334E+00
 -20.655  0.339E+00  0.334E+00
 -20.645  0.339E+00  0.334E+00
 -20.635  0.340E+00  0.334E+00
 -20.625  0.340E+00  0.334E+00
 -20.615  0.340E+00  0.334E+00
 -20.605  0.339E+00  0.334E+00
 -20.595  0.339E+00  0.334E+00
 -20.585  0.339E+00  0.334E+00
 -20.575  0.339E+00  0.333E+00
 -20.565  0.338E+00  0.333E+00
 -20.555  0.338E+00  0.333E+00
 -20.545  0.338E+00  0.332E+00
 -20.535  0.338E+00  0.332E+00
 -20.525  0.338E+00  0.332E+00
 -20.515  0.338E+00  0.333E+00
 -20.505  0.338E+00  0.333E+00
 -20.495  0.339E+00  0.334E+00
 -20.485  0.340E+00  0.334E+00
 -20.475  0.340E+00  0.335E+00
 -20.465  0.341E+00  0.336E+00
 -20.455  0.342E+00  0.336E+00
 -20.445  0.342E+00  0.337E+00
 -20.435  0.342E+00  0.337E+00
 -20.425  0.342E+00  0.337E+00
 -20.415  0.342E+00  0.337E+00
 -20.405  0.342E+00  0.336E+00
 -20.395  0.341E+00  0.336E+00
 -20.385  0.340E+00  0.335E+00
 -20.375  0.339E+00  0.334E+00
 -20.365  0.339E+00  0.333E+00
 -20.355  0.338E+00  0.332E+00
 -20.345  0.337E+00  0.332E+00
 -20.335  0.336E+00  0.331E+00
 -20.325  0.336E+00  0.331E+00
 -20.315  0.336E+00  0.331E+00
 -20.305  0.337E+00  0.331E+00
 -20.295  0.338E+00  0.332E+00
 -20.285  0.339E+00  0.333E+00
 -20.275  0.340E+00  0.335E+00
 -20.265  0.342E+00  0.336E+00
 -20.255  0.343E+00  0.338E+00
 -20.245  0.344E+00  0.339E+00
 -20.235  0.346E+00  0.340E+00
 -20.225  0.347E+00  0.341E+00
 -20.215  0.347E+00  0.341E+00
 -20.205  0.347E+00  0.341E+00
 -20.195  0.347E+00  0.341E+00
 -20.185  0.346E+00  0.340E+00
 -20.175  0.344E+00  0.339E+00
 -20.165  0.343E+00  0.337E+00
 -20.155  0.341E+00  0.336E+00
 -20.145  0.339E+00  0.334E+00
 -20.135  0.338E+00  0.332E+00
 -20.125  0.336E+00  0.330E+00
 -20.115  0.335E+00  0.329E+00
 -20.105  0.334E+00  0.328E+00
 -20.095  0.334E+00  0.328E+00
 -20.085  0.334E+00  0.328E+00
 -20.075  0.335E+00  0.329E+00
 -20.065  0.336E+00  0.331E+00
 -20.055  0.338E+00  0.332E+00
 -20.045  0.340E+00  0.334E+00
 -20.035  0.342E+00  0.337E+00
 -20.025  0.345E+00  0.339E+00
 -20.015  0.347E+00  0.342E+00
 -20.005  0.349E+00  0.344E+00
 -19.995  0.351E+00  0.345E+00
 -19.985  0.353E+00  0.347E+00
 -19.975  0.353E+00  0.347E+00
 -19.965  0.353E+00  0.347E+00
 -19.955  0.353E+00  0.347E+00
 -19.945  0.351E+00  0.345E+00
 -19.935  0.349E+00  0.344E+00
 -19.925  0.347E+00  0.341E+00
 -19.915  0.344E+00  0.339E+00
 -19.905  0.341E+00  0.336E+00
 -19.895  0.339E+00  0.333E+00
 -19.885  0.336E+00  0.330E+00
 -19.875  0.333E+00  0.328E+00
 -19.865  0.332E+00  0.326E+00
 -19.855  0.330E+00  0.325E+00
 -19.845  0.330E+00  0.324E+00
 -19.835  0.330E+00  0.325E+00
 -19.825  0.331E+00  0.326E+00
 -19.815  0.333E+00  0.327E+00
 -19.805  0.335E+00  0.330E+00
 -19.795  0.338E+00  0.333E+00
 -19.785  0.342E+00  0.336E+00
 -19.775  0.345E+00  0.340E+00
 -19.765  0.349E+00  0.343E+00
 -19.755  0.352E+00  0.347E+00
 -19.745  0.355E+00  0.350E+00
 -19.735  0.358E+00  0.352E+00
 -19.725  0.360E+00  0.354E+00
 -19.715  0.361E+00  0.355E+00
 -19.705  0.361E+00  0.355E+00
 -19.695  0.360E+00  0.354E+00
 -19.685  0.359E+00  0.353E+00
 -19.675  0.356E+00  0.350E+00
 -19.665  0.353E+00  0.347E+00
 -19.655  0.350E+00  0.344E+00
 -19.645  0.346E+00  0.340E+00
 -19.635  0.342E+00  0.336E+00
 -19.625  0.338E+00  0.332E+00
 -19.615  0.334E+00  0.329E+00
 -19.605  0.331E+00  0.326E+00
 -19.595  0.329E+00  0.323E+00
 -19.585  0.327E+00  0.321E+00
 -19.575  0.326E+00  0.321E+00
 -19.565  0.326E+00  0.321E+00
 -19.555  0.327E+00  0.321E+00
 -19.545  0.329E+00  0.323E+00
 -19.535  0.332E+00  0.326E+00
 -19.525  0.335E+00  0.329E+00
 -19.515  0.339E+00  0.333E+00
 -19.505  0.344E+00  0.338E+00
 -19.495  0.348E+00  0.343E+00
 -19.485  0.353E+00  0.347E+00
 -19.475  0.357E+00  0.352E+00
 -19.465  0.361E+00  0.356E+00
 -19.455  0.365E+00  0.359E+00
 -19.445  0.367E+00  0.361E+00
 -19.435  0.369E+00  0.363E+00
 -19.425  0.370E+00  0.364E+00
 -19.415  0.369E+00  0.363E+00
 -19.405  0.368E+00  0.362E+00
 -19.395  0.365E+00  0.359E+00
 -19.385  0.362E+00  0.356E+00
 -19.375  0.358E+00  0.352E+00
 -19.365  0.353E+00  0.347E+00
 -19.355  0.348E+00  0.342E+00
 -19.345  0.343E+00  0.337E+00
 -19.335  0.338E+00  0.332E+00
 -19.325  0.333E+00  0.328E+00
 -19.315  0.329E+00  0.324E+00
 -19.305  0.326E+00  0.320E+00
 -19.295  0.323E+00  0.318E+00
 -19.285  0.322E+00  0.317E+00
 -19.275  0.322E+00  0.316E+00
 -19.265  0.322E+00  0.317E+00
 -19.255  0.324E+00  0.319E+00
 -19.245  0.327E+00  0.322E+00
 -19.235  0.331E+00  0.325E+00
 -19.225  0.335E+00  0.330E+00
 -19.215  0.340E+00  0.335E+00
 -19.205  0.346E+00  0.340E+00
 -19.195  0.351E+00  0.346E+00
 -19.185  0.357E+00  0.351E+00
 -19.175  0.362E+00  0.356E+00
 -19.165  0.367E+00  0.361E+00
 -19.155  0.371E+00  0.365E+00
 -19.145  0.374E+00  0.368E+00
 -19.135  0.377E+00  0.371E+00
 -19.125  0.378E+00  0.372E+00
 -19.115  0.378E+00  0.372E+00
 -19.105  0.378E+00  0.371E+00
 -19.095  0.376E+00  0.369E+00
 -19.085  0.373E+00  0.366E+00
 -19.075  0.369E+00  0.363E+00
 -19.065  0.364E+00  0.358E+00
 -19.055  0.358E+00  0.353E+00
 -19.045  0.353E+00  0.347E+00
 -19.035  0.347E+00  0.341E+00
 -19.025  0.341E+00  0.335E+00
 -19.015  0.335E+00  0.329E+00
 -19.005  0.330E+00  0.324E+00
 -18.995  0.325E+00  0.320E+00
 -18.985  0.321E+00  0.316E+00
 -18.975  0.319E+00  0.314E+00
 -18.965  0.318E+00  0.312E+00
 -18.955  0.318E+00  0.312E+00
 -18.945  0.319E+00  0.314E+00
 -18.935  0.321E+00  0.316E+00
 -18.925  0.325E+00  0.320E+00
 -18.915  0.330E+00  0.324E+00
 -18.905  0.335E+00  0.330E+00
 -18.895  0.341E+00  0.336E+00
 -18.885  0.348E+00  0.342E+00
 -18.875  0.355E+00  0.349E+00
 -18.865  0.361E+00  0.356E+00
 -18.855  0.368E+00  0.362E+00
 -18.845  0.373E+00  0.367E+00
 -18.835  0.378E+00  0.372E+00
 -18.825  0.382E+00  0.376E+00
 -18.815  0.385E+00  0.379E+00
 -18.805  0.387E+00  0.381E+00
 -18.795  0.388E+00  0.382E+00
 -18.785  0.387E+00  0.381E+00
 -18.775  0.386E+00  0.379E+00
 -18.765  0.383E+00  0.377E+00
 -18.755  0.379E+00  0.373E+00
 -18.745  0.374E+00  0.368E+00
 -18.735  0.369E+00  0.363E+00
 -18.725  0.363E+00  0.358E+00
 -18.715  0.357E+00  0.352E+00
 -18.705  0.351E+00  0.345E+00
 -18.695  0.345E+00  0.339E+00
 -18.685  0.339E+00  0.333E+00
 -18.675  0.333E+00  0.328E+00
 -18.665  0.328E+00  0.323E+00
 -18.655  0.324E+00  0.319E+00
 -18.645  0.320E+00  0.315E+00
 -18.635  0.318E+00  0.313E+00
 -18.625  0.316E+00  0.311E+00
 -18.615  0.316E+00  0.311E+00
 -18.605  0.317E+00  0.312E+00
 -18.595  0.320E+00  0.315E+00
 -18.585  0.323E+00  0.318E+00
 -18.575  0.328E+00  0.323E+00
 -18.565  0.334E+00  0.329E+00
 -18.555  0.341E+00  0.335E+00
 -18.545  0.348E+00  0.343E+00
 -18.535  0.356E+00  0.350E+00
 -18.525  0.364E+00  0.358E+00
 -18.515  0.371E+00  0.365E+00
 -18.505  0.379E+00  0.373E+00
 -18.495  0.385E+00  0.379E+00
 -18.485  0.391E+00  0.385E+00
 -18.475  0.395E+00  0.389E+00
 -18.465  0.398E+00  0.392E+00
 -18.455  0.400E+00  0.394E+00
 -18.445  0.400E+00  0.394E+00
 -18.435  0.399E+00  0.393E+00
 -18.425  0.397E+00  0.391E+00
 -18.415  0.393E+00  0.387E+00
 -18.405  0.388E+00  0.382E+00
 -18.395  0.382E+00  0.376E+00
 -18.385  0.376E+00  0.370E+00
 -18.375  0.369E+00  0.363E+00
 -18.365  0.362E+00  0.356E+00
 -18.355  0.355E+00  0.349E+00
 -18.345  0.348E+00  0.342E+00
 -18.335  0.341E+00  0.336E+00
 -18.325  0.335E+00  0.330E+00
 -18.315  0.330E+00  0.325E+00
 -18.305  0.326E+00  0.321E+00
 -18.295  0.322E+00  0.317E+00
 -18.285  0.320E+00  0.315E+00
 -18.275  0.318E+00  0.313E+00
 -18.265  0.318E+00  0.313E+00
 -18.255  0.319E+00  0.314E+00
 -18.245  0.320E+00  0.316E+00
 -18.235  0.323E+00  0.318E+00
 -18.225  0.327E+00  0.322E+00
 -18.215  0.332E+00  0.327E+00
 -18.205  0.338E+00  0.333E+00
 -18.195  0.344E+00  0.339E+00
 -18.185  0.351E+00  0.346E+00
 -18.175  0.359E+00  0.354E+00
 -18.165  0.367E+00  0.361E+00
 -18.155  0.375E+00  0.369E+00
 -18.145  0.382E+00  0.377E+00
 -18.135  0.389E+00  0.384E+00
 -18.125  0.396E+00  0.390E+00
 -18.115  0.402E+00  0.396E+00
 -18.105  0.406E+00  0.400E+00
 -18.095  0.410E+00  0.404E+00
 -18.085  0.412E+00  0.406E+00
 -18.075  0.413E+00  0.406E+00
 -18.065  0.412E+00  0.406E+00
 -18.055  0.409E+00  0.403E+00
 -18.045  0.406E+00  0.400E+00
 -18.035  0.401E+00  0.395E+00
 -18.025  0.394E+00  0.389E+00
 -18.015  0.387E+00  0.382E+00
 -18.005  0.380E+00  0.374E+00
 -17.995  0.371E+00  0.366E+00
 -17.985  0.363E+00  0.358E+00
 -17.975  0.355E+00  0.350E+00
 -17.965  0.347E+00  0.342E+00
 -17.955  0.340E+00  0.335E+00
 -17.945  0.333E+00  0.328E+00
 -17.935  0.328E+00  0.323E+00
 -17.925  0.323E+00  0.319E+00
 -17.915  0.320E+00  0.315E+00
 -17.905  0.318E+00  0.314E+00
 -17.895  0.318E+00  0.313E+00
 -17.885  0.319E+00  0.314E+00
 -17.875  0.321E+00  0.316E+00
 -17.865  0.324E+00  0.320E+00
 -17.855  0.329E+00  0.324E+00
 -17.845  0.334E+00  0.329E+00
 -17.835  0.340E+00  0.336E+00
 -17.825  0.348E+00  0.343E+00
 -17.815  0.355E+00  0.350E+00
 -17.805  0.363E+00  0.358E+00
 -17.795  0.371E+00  0.366E+00
 -17.785  0.379E+00  0.374E+00
 -17.775  0.387E+00  0.382E+00
 -17.765  0.395E+00  0.389E+00
 -17.755  0.402E+00  0.396E+00
 -17.745  0.408E+00  0.402E+00
 -17.735  0.413E+00  0.407E+00
 -17.725  0.417E+00  0.412E+00
 -17.715  0.421E+00  0.415E+00
 -17.705  0.423E+00  0.417E+00
 -17.695  0.424E+00  0.418E+00
 -17.685  0.424E+00  0.418E+00
 -17.675  0.422E+00  0.416E+00
 -17.665  0.419E+00  0.414E+00
 -17.655  0.416E+00  0.410E+00
 -17.645  0.411E+00  0.405E+00
 -17.635  0.405E+00  0.400E+00
 -17.625  0.398E+00  0.393E+00
 -17.615  0.391E+00  0.386E+00
 -17.605  0.383E+00  0.378E+00
 -17.595  0.375E+00  0.370E+00
 -17.585  0.367E+00  0.362E+00
 -17.575  0.359E+00  0.354E+00
 -17.565  0.351E+00  0.347E+00
 -17.555  0.344E+00  0.340E+00
 -17.545  0.338E+00  0.333E+00
 -17.535  0.332E+00  0.328E+00
 -17.525  0.328E+00  0.324E+00
 -17.515  0.325E+00  0.321E+00
 -17.505  0.324E+00  0.320E+00
 -17.495  0.324E+00  0.320E+00
 -17.485  0.325E+00  0.321E+00
 -17.475  0.328E+00  0.324E+00
 -17.465  0.333E+00  0.329E+00
 -17.455  0.339E+00  0.334E+00
 -17.445  0.346E+00  0.341E+00
 -17.435  0.354E+00  0.349E+00
 -17.425  0.363E+00  0.358E+00
 -17.415  0.372E+00  0.368E+00
 -17.405  0.382E+00  0.377E+00
 -17.395  0.392E+00  0.387E+00
 -17.385  0.402E+00  0.397E+00
 -17.375  0.411E+00  0.406E+00
 -17.365  0.419E+00  0.414E+00
 -17.355  0.427E+00  0.422E+00
 -17.345  0.434E+00  0.428E+00
 -17.335  0.439E+00  0.433E+00
 -17.325  0.443E+00  0.437E+00
 -17.315  0.446E+00  0.440E+00
 -17.305  0.447E+00  0.442E+00
 -17.295  0.447E+00  0.442E+00
 -17.285  0.446E+00  0.441E+00
 -17.275  0.444E+00  0.438E+00
 -17.265  0.441E+00  0.435E+00
 -17.255  0.436E+00  0.431E+00
 -17.245  0.431E+00  0.426E+00
 -17.235  0.425E+00  0.420E+00
 -17.225  0.419E+00  0.414E+00
 -17.215  0.412E+00  0.407E+00
 -17.205  0.405E+00  0.400E+00
 -17.195  0.397E+00  0.393E+00
 -17.185  0.390E+00  0.385E+00
 -17.175  0.383E+00  0.378E+00
 -17.165  0.376E+00  0.372E+00
 -17.155  0.369E+00  0.365E+00
 -17.145  0.364E+00  0.359E+00
 -17.135  0.358E+00  0.354E+00
 -17.125  0.354E+00  0.350E+00
 -17.115  0.351E+00  0.347E+00
 -17.105  0.349E+00  0.345E+00
 -17.095  0.349E+00  0.345E+00
 -17.085  0.350E+00  0.346E+00
 -17.075  0.352E+00  0.348E+00
 -17.065  0.356E+00  0.352E+00
 -17.055  0.362E+00  0.358E+00
 -17.045  0.369E+00  0.364E+00
 -17.035  0.377E+00  0.373E+00
 -17.025  0.386E+00  0.382E+00
 -17.015  0.397E+00  0.392E+00
 -17.005  0.408E+00  0.404E+00
 -16.995  0.420E+00  0.415E+00
 -16.985  0.432E+00  0.427E+00
 -16.975  0.444E+00  0.439E+00
 -16.965  0.455E+00  0.450E+00
 -16.955  0.466E+00  0.461E+00
 -16.945  0.476E+00  0.471E+00
 -16.935  0.486E+00  0.480E+00
 -16.925  0.494E+00  0.488E+00
 -16.915  0.500E+00  0.495E+00
 -16.905  0.506E+00  0.500E+00
 -16.895  0.510E+00  0.504E+00
 -16.885  0.512E+00  0.507E+00
 -16.875  0.514E+00  0.508E+00
 -16.865  0.514E+00  0.508E+00
 -16.855  0.513E+00  0.508E+00
 -16.845  0.511E+00  0.506E+00
 -16.835  0.509E+00  0.503E+00
 -16.825  0.505E+00  0.500E+00
 -16.815  0.502E+00  0.497E+00
 -16.805  0.498E+00  0.493E+00
 -16.795  0.494E+00  0.489E+00
 -16.785  0.490E+00  0.485E+00
 -16.775  0.486E+00  0.482E+00
 -16.765  0.483E+00  0.479E+00
 -16.755  0.480E+00  0.476E+00
 -16.745  0.478E+00  0.473E+00
 -16.735  0.476E+00  0.472E+00
 -16.725  0.475E+00  0.470E+00
 -16.715  0.474E+00  0.470E+00
 -16.705  0.474E+00  0.470E+00
 -16.695  0.475E+00  0.470E+00
 -16.685  0.476E+00  0.472E+00
 -16.675  0.478E+00  0.474E+00
 -16.665  0.480E+00  0.476E+00
 -16.655  0.483E+00  0.479E+00
 -16.645  0.486E+00  0.482E+00
 -16.635  0.490E+00  0.486E+00
 -16.625  0.495E+00  0.490E+00
 -16.615  0.499E+00  0.495E+00
 -16.605  0.504E+00  0.500E+00
 -16.595  0.509E+00  0.504E+00
 -16.585  0.513E+00  0.509E+00
 -16.575  0.518E+00  0.514E+00
 -16.565  0.522E+00  0.518E+00
 -16.555  0.526E+00  0.522E+00
 -16.545  0.529E+00  0.525E+00
 -16.535  0.531E+00  0.527E+00
 -16.525  0.533E+00  0.528E+00
 -16.515  0.532E+00  0.528E+00
 -16.505  0.531E+00  0.526E+00
 -16.495  0.527E+00  0.523E+00
 -16.485  0.522E+00  0.518E+00
 -16.475  0.515E+00  0.510E+00
 -16.465  0.506E+00  0.501E+00
 -16.455  0.494E+00  0.490E+00
 -16.445  0.480E+00  0.476E+00
 -16.435  0.465E+00  0.461E+00
 -16.425  0.448E+00  0.444E+00
 -16.415  0.429E+00  0.425E+00
 -16.405  0.408E+00  0.405E+00
 -16.395  0.387E+00  0.384E+00
 -16.385  0.365E+00  0.362E+00
 -16.375  0.343E+00  0.340E+00
 -16.365  0.321E+00  0.319E+00
 -16.355  0.300E+00  0.298E+00
 -16.345  0.281E+00  0.278E+00
 -16.335  0.262E+00  0.260E+00
 -16.325  0.246E+00  0.244E+00
 -16.315  0.232E+00  0.230E+00
 -16.305  0.221E+00  0.219E+00
 -16.295  0.212E+00  0.211E+00
 -16.285  0.207E+00  0.205E+00
 -16.275  0.204E+00  0.202E+00
 -16.265  0.204E+00  0.203E+00
 -16.255  0.207E+00  0.206E+00
 -16.245  0.213E+00  0.211E+00
 -16.235  0.221E+00  0.219E+00
 -16.225  0.230E+00  0.229E+00
 -16.215  0.242E+00  0.240E+00
 -16.205  0.254E+00  0.252E+00
 -16.195  0.267E+00  0.265E+00
 -16.185  0.280E+00  0.278E+00
 -16.175  0.292E+00  0.290E+00
 -16.165  0.304E+00  0.301E+00
 -16.155  0.314E+00  0.311E+00
 -16.145  0.321E+00  0.319E+00
 -16.135  0.327E+00  0.324E+00
 -16.125  0.330E+00  0.328E+00
 -16.115  0.331E+00  0.328E+00
 -16.105  0.328E+00  0.325E+00
 -16.095  0.323E+00  0.320E+00
 -16.085  0.315E+00  0.313E+00
 -16.075  0.305E+00  0.303E+00
 -16.065  0.293E+00  0.291E+00
 -16.055  0.279E+00  0.277E+00
 -16.045  0.264E+00  0.262E+00
 -16.035  0.248E+00  0.246E+00
 -16.025  0.232E+00  0.230E+00
 -16.015  0.215E+00  0.214E+00
 -16.005  0.200E+00  0.198E+00
 -15.995  0.185E+00  0.183E+00
 -15.985  0.171E+00  0.169E+00
 -15.975  0.158E+00  0.157E+00
 -15.965  0.147E+00  0.146E+00
 -15.955  0.138E+00  0.137E+00
 -15.945  0.131E+00  0.130E+00
 -15.935  0.126E+00  0.125E+00
 -15.925  0.122E+00  0.121E+00
 -15.915  0.120E+00  0.119E+00
 -15.905  0.120E+00  0.119E+00
 -15.895  0.121E+00  0.121E+00
 -15.885  0.124E+00  0.123E+00
 -15.875  0.128E+00  0.127E+00
 -15.865  0.133E+00  0.132E+00
 -15.855  0.139E+00  0.138E+00
 -15.845  0.145E+00  0.144E+00
 -15.835  0.152E+00  0.151E+00
 -15.825  0.159E+00  0.158E+00
 -15.815  0.166E+00  0.165E+00
 -15.805  0.172E+00  0.171E+00
 -15.795  0.178E+00  0.177E+00
 -15.785  0.183E+00  0.182E+00
 -15.775  0.187E+00  0.186E+00
 -15.765  0.190E+00  0.189E+00
 -15.755  0.192E+00  0.190E+00
 -15.745  0.192E+00  0.191E+00
 -15.735  0.191E+00  0.189E+00
 -15.725  0.188E+00  0.187E+00
 -15.715  0.184E+00  0.183E+00
 -15.705  0.179E+00  0.178E+00
 -15.695  0.173E+00  0.172E+00
 -15.685  0.166E+00  0.165E+00
 -15.675  0.158E+00  0.157E+00
 -15.665  0.150E+00  0.149E+00
 -15.655  0.141E+00  0.140E+00
 -15.645  0.133E+00  0.132E+00
 -15.635  0.124E+00  0.123E+00
 -15.625  0.116E+00  0.115E+00
 -15.615  0.108E+00  0.107E+00
 -15.605  0.101E+00  0.100E+00
 -15.595  0.949E-01  0.942E-01
 -15.585  0.894E-01  0.887E-01
 -15.575  0.847E-01  0.841E-01
 -15.565  0.808E-01  0.803E-01
 -15.555  0.779E-01  0.773E-01
 -15.545  0.757E-01  0.751E-01
 -15.535  0.742E-01  0.737E-01
 -15.525  0.735E-01  0.730E-01
 -15.515  0.734E-01  0.729E-01
 -15.505  0.739E-01  0.734E-01
 -15.495  0.749E-01  0.744E-01
 -15.485  0.763E-01  0.758E-01
 -15.475  0.781E-01  0.776E-01
 -15.465  0.802E-01  0.797E-01
 -15.455  0.826E-01  0.820E-01
 -15.445  0.851E-01  0.845E-01
 -15.435  0.878E-01  0.872E-01
 -15.425  0.906E-01  0.899E-01
 -15.415  0.933E-01  0.927E-01
 -15.405  0.961E-01  0.954E-01
 -15.395  0.989E-01  0.981E-01
 -15.385  0.102E+00  0.101E+00
 -15.375  0.104E+00  0.103E+00
 -15.365  0.107E+00  0.106E+00
 -15.355  0.110E+00  0.109E+00
 -15.345  0.112E+00  0.111E+00
 -15.335  0.115E+00  0.114E+00
 -15.325  0.119E+00  0.117E+00
 -15.315  0.122E+00  0.121E+00
 -15.305  0.126E+00  0.125E+00
 -15.295  0.131E+00  0.129E+00
 -15.285  0.136E+00  0.134E+00
 -15.275  0.142E+00  0.140E+00
 -15.265  0.148E+00  0.146E+00
 -15.255  0.156E+00  0.153E+00
 -15.245  0.164E+00  0.161E+00
 -15.235  0.173E+00  0.170E+00
 -15.225  0.183E+00  0.180E+00
 -15.215  0.193E+00  0.190E+00
 -15.205  0.204E+00  0.201E+00
 -15.195  0.216E+00  0.212E+00
 -15.185  0.227E+00  0.223E+00
 -15.175  0.239E+00  0.235E+00
 -15.165  0.251E+00  0.247E+00
 -15.155  0.263E+00  0.258E+00
 -15.145  0.275E+00  0.270E+00
 -15.135  0.286E+00  0.281E+00
 -15.125  0.297E+00  0.292E+00
 -15.115  0.307E+00  0.302E+00
 -15.105  0.317E+00  0.312E+00
 -15.095  0.327E+00  0.321E+00
 -15.085  0.336E+00  0.330E+00
 -15.075  0.344E+00  0.338E+00
 -15.065  0.352E+00  0.346E+00
 -15.055  0.359E+00  0.353E+00
 -15.045  0.366E+00  0.359E+00
 -15.035  0.372E+00  0.365E+00
 -15.025  0.377E+00  0.371E+00
 -15.015  0.382E+00  0.375E+00
 -15.005  0.386E+00  0.380E+00
 -14.995  0.390E+00  0.384E+00
 -14.985  0.394E+00  0.388E+00
 -14.975  0.398E+00  0.391E+00
 -14.965  0.401E+00  0.394E+00
 -14.955  0.405E+00  0.398E+00
 -14.945  0.408E+00  0.401E+00
 -14.935  0.412E+00  0.405E+00
 -14.925  0.416E+00  0.410E+00
 -14.915  0.421E+00  0.415E+00
 -14.905  0.427E+00  0.421E+00
 -14.895  0.434E+00  0.427E+00
 -14.885  0.442E+00  0.435E+00
 -14.875  0.451E+00  0.444E+00
 -14.865  0.461E+00  0.454E+00
 -14.855  0.471E+00  0.464E+00
 -14.845  0.483E+00  0.476E+00
 -14.835  0.495E+00  0.488E+00
 -14.825  0.508E+00  0.501E+00
 -14.815  0.521E+00  0.514E+00
 -14.805  0.534E+00  0.526E+00
 -14.795  0.546E+00  0.538E+00
 -14.785  0.557E+00  0.550E+00
 -14.775  0.567E+00  0.560E+00
 -14.765  0.576E+00  0.568E+00
 -14.755  0.583E+00  0.576E+00
 -14.745  0.589E+00  0.581E+00
 -14.735  0.592E+00  0.584E+00
 -14.725  0.594E+00  0.586E+00
 -14.715  0.594E+00  0.586E+00
 -14.705  0.592E+00  0.585E+00
 -14.695  0.589E+00  0.582E+00
 -14.685  0.585E+00  0.578E+00
 -14.675  0.580E+00  0.573E+00
 -14.665  0.575E+00  0.568E+00
 -14.655  0.570E+00  0.562E+00
 -14.645  0.564E+00  0.557E+00
 -14.635  0.559E+00  0.552E+00
 -14.625  0.554E+00  0.548E+00
 -14.615  0.550E+00  0.544E+00
 -14.605  0.547E+00  0.540E+00
 -14.595  0.544E+00  0.537E+00
 -14.585  0.541E+00  0.535E+00
 -14.575  0.539E+00  0.533E+00
 -14.565  0.537E+00  0.531E+00
 -14.555  0.535E+00  0.528E+00
 -14.545  0.532E+00  0.526E+00
 -14.535  0.530E+00  0.523E+00
 -14.525  0.526E+00  0.520E+00
 -14.515  0.522E+00  0.516E+00
 -14.505  0.517E+00  0.511E+00
 -14.495  0.511E+00  0.505E+00
 -14.485  0.505E+00  0.499E+00
 -14.475  0.498E+00  0.492E+00
 -14.465  0.490E+00  0.484E+00
 -14.455  0.481E+00  0.476E+00
 -14.445  0.473E+00  0.467E+00
 -14.435  0.464E+00  0.459E+00
 -14.425  0.456E+00  0.450E+00
 -14.415  0.447E+00  0.442E+00
 -14.405  0.440E+00  0.435E+00
 -14.395  0.433E+00  0.428E+00
 -14.385  0.427E+00  0.422E+00
 -14.375  0.421E+00  0.416E+00
 -14.365  0.417E+00  0.412E+00
 -14.355  0.414E+00  0.409E+00
 -14.345  0.412E+00  0.407E+00
 -14.335  0.411E+00  0.406E+00
 -14.325  0.411E+00  0.406E+00
 -14.315  0.412E+00  0.407E+00
 -14.305  0.413E+00  0.408E+00
 -14.295  0.415E+00  0.410E+00
 -14.285  0.417E+00  0.412E+00
 -14.275  0.419E+00  0.415E+00
 -14.265  0.422E+00  0.417E+00
 -14.255  0.424E+00  0.419E+00
 -14.245  0.425E+00  0.421E+00
 -14.235  0.426E+00  0.422E+00
 -14.225  0.427E+00  0.422E+00
 -14.215  0.426E+00  0.421E+00
 -14.205  0.425E+00  0.420E+00
 -14.195  0.423E+00  0.418E+00
 -14.185  0.420E+00  0.415E+00
 -14.175  0.416E+00  0.411E+00
 -14.165  0.411E+00  0.407E+00
 -14.155  0.406E+00  0.401E+00
 -14.145  0.400E+00  0.396E+00
 -14.135  0.394E+00  0.390E+00
 -14.125  0.388E+00  0.384E+00
 -14.115  0.381E+00  0.377E+00
 -14.105  0.375E+00  0.372E+00
 -14.095  0.370E+00  0.366E+00
 -14.085  0.365E+00  0.361E+00
 -14.075  0.361E+00  0.357E+00
 -14.065  0.358E+00  0.354E+00
 -14.055  0.356E+00  0.352E+00
 -14.045  0.355E+00  0.352E+00
 -14.035  0.356E+00  0.352E+00
 -14.025  0.357E+00  0.353E+00
 -14.015  0.359E+00  0.355E+00
 -14.005  0.362E+00  0.358E+00
 -13.995  0.365E+00  0.361E+00
 -13.985  0.369E+00  0.365E+00
 -13.975  0.373E+00  0.369E+00
 -13.965  0.377E+00  0.373E+00
 -13.955  0.380E+00  0.376E+00
 -13.945  0.382E+00  0.378E+00
 -13.935  0.384E+00  0.380E+00
 -13.925  0.385E+00  0.381E+00
 -13.915  0.384E+00  0.380E+00
 -13.905  0.383E+00  0.379E+00
 -13.895  0.380E+00  0.377E+00
 -13.885  0.377E+00  0.373E+00
 -13.875  0.373E+00  0.369E+00
 -13.865  0.368E+00  0.364E+00
 -13.855  0.363E+00  0.359E+00
 -13.845  0.358E+00  0.354E+00
 -13.835  0.352E+00  0.349E+00
 -13.825  0.347E+00  0.344E+00
 -13.815  0.343E+00  0.340E+00
 -13.805  0.339E+00  0.336E+00
 -13.795  0.336E+00  0.333E+00
 -13.785  0.334E+00  0.331E+00
 -13.775  0.333E+00  0.329E+00
 -13.765  0.332E+00  0.329E+00
 -13.755  0.332E+00  0.329E+00
 -13.745  0.333E+00  0.330E+00
 -13.735  0.335E+00  0.332E+00
 -13.725  0.337E+00  0.333E+00
 -13.715  0.339E+00  0.335E+00
 -13.705  0.341E+00  0.337E+00
 -13.695  0.342E+00  0.339E+00
 -13.685  0.343E+00  0.340E+00
 -13.675  0.344E+00  0.341E+00
 -13.665  0.344E+00  0.341E+00
 -13.655  0.344E+00  0.340E+00
 -13.645  0.343E+00  0.339E+00
 -13.635  0.341E+00  0.338E+00
 -13.625  0.339E+00  0.336E+00
 -13.615  0.337E+00  0.333E+00
 -13.605  0.334E+00  0.331E+00
 -13.595  0.331E+00  0.328E+00
 -13.585  0.328E+00  0.325E+00
 -13.575  0.326E+00  0.323E+00
 -13.565  0.324E+00  0.321E+00
 -13.555  0.322E+00  0.319E+00
 -13.545  0.321E+00  0.318E+00
 -13.535  0.320E+00  0.317E+00
 -13.525  0.320E+00  0.317E+00
 -13.515  0.320E+00  0.317E+00
 -13.505  0.321E+00  0.318E+00
 -13.495  0.322E+00  0.319E+00
 -13.485  0.323E+00  0.320E+00
 -13.475  0.325E+00  0.322E+00
 -13.465  0.326E+00  0.323E+00
 -13.455  0.327E+00  0.324E+00
 -13.445  0.328E+00  0.325E+00
 -13.435  0.329E+00  0.326E+00
 -13.425  0.329E+00  0.326E+00
 -13.415  0.328E+00  0.325E+00
 -13.405  0.327E+00  0.324E+00
 -13.395  0.326E+00  0.323E+00
 -13.385  0.324E+00  0.321E+00
 -13.375  0.321E+00  0.318E+00
 -13.365  0.318E+00  0.315E+00
 -13.355  0.315E+00  0.312E+00
 -13.345  0.312E+00  0.309E+00
 -13.335  0.309E+00  0.306E+00
 -13.325  0.305E+00  0.302E+00
 -13.315  0.302E+00  0.299E+00
 -13.305  0.299E+00  0.296E+00
 -13.295  0.297E+00  0.294E+00
 -13.285  0.295E+00  0.292E+00
 -13.275  0.293E+00  0.290E+00
 -13.265  0.292E+00  0.289E+00
 -13.255  0.291E+00  0.288E+00
 -13.245  0.291E+00  0.288E+00
 -13.235  0.291E+00  0.288E+00
 -13.225  0.291E+00  0.289E+00
 -13.215  0.292E+00  0.289E+00
 -13.205  0.293E+00  0.291E+00
 -13.195  0.294E+00  0.292E+00
 -13.185  0.296E+00  0.293E+00
 -13.175  0.297E+00  0.295E+00
 -13.165  0.299E+00  0.297E+00
 -13.155  0.301E+00  0.298E+00
 -13.145  0.302E+00  0.300E+00
 -13.135  0.304E+00  0.301E+00
 -13.125  0.305E+00  0.302E+00
 -13.115  0.306E+00  0.304E+00
 -13.105  0.307E+00  0.305E+00
 -13.095  0.308E+00  0.305E+00
 -13.085  0.309E+00  0.306E+00
 -13.075  0.309E+00  0.306E+00
 -13.065  0.309E+00  0.307E+00
 -13.055  0.309E+00  0.306E+00
 -13.045  0.309E+00  0.306E+00
 -13.035  0.308E+00  0.305E+00
 -13.025  0.307E+00  0.304E+00
 -13.015  0.305E+00  0.302E+00
 -13.005  0.303E+00  0.300E+00
 -12.995  0.300E+00  0.297E+00
 -12.985  0.297E+00  0.294E+00
 -12.975  0.294E+00  0.291E+00
 -12.965  0.290E+00  0.287E+00
 -12.955  0.285E+00  0.283E+00
 -12.945  0.281E+00  0.278E+00
 -12.935  0.276E+00  0.274E+00
 -12.925  0.271E+00  0.269E+00
 -12.915  0.266E+00  0.264E+00
 -12.905  0.261E+00  0.259E+00
 -12.895  0.257E+00  0.255E+00
 -12.885  0.253E+00  0.251E+00
 -12.875  0.250E+00  0.247E+00
 -12.865  0.247E+00  0.245E+00
 -12.855  0.245E+00  0.243E+00
 -12.845  0.245E+00  0.243E+00
 -12.835  0.246E+00  0.244E+00
 -12.825  0.248E+00  0.246E+00
 -12.815  0.251E+00  0.249E+00
 -12.805  0.256E+00  0.254E+00
 -12.795  0.261E+00  0.259E+00
 -12.785  0.268E+00  0.266E+00
 -12.775  0.275E+00  0.273E+00
 -12.765  0.283E+00  0.281E+00
 -12.755  0.291E+00  0.289E+00
 -12.745  0.299E+00  0.296E+00
 -12.735  0.306E+00  0.304E+00
 -12.725  0.313E+00  0.310E+00
 -12.715  0.318E+00  0.315E+00
 -12.705  0.322E+00  0.319E+00
 -12.695  0.324E+00  0.321E+00
 -12.685  0.324E+00  0.322E+00
 -12.675  0.323E+00  0.320E+00
 -12.665  0.320E+00  0.317E+00
 -12.655  0.314E+00  0.312E+00
 -12.645  0.308E+00  0.305E+00
 -12.635  0.299E+00  0.297E+00
 -12.625  0.289E+00  0.287E+00
 -12.615  0.279E+00  0.277E+00
 -12.605  0.268E+00  0.266E+00
 -12.595  0.257E+00  0.254E+00
 -12.585  0.246E+00  0.244E+00
 -12.575  0.236E+00  0.234E+00
 -12.565  0.227E+00  0.225E+00
 -12.555  0.219E+00  0.217E+00
 -12.545  0.214E+00  0.212E+00
 -12.535  0.210E+00  0.208E+00
 -12.525  0.209E+00  0.207E+00
 -12.515  0.211E+00  0.209E+00
 -12.505  0.215E+00  0.213E+00
 -12.495  0.222E+00  0.220E+00
 -12.485  0.231E+00  0.229E+00
 -12.475  0.243E+00  0.241E+00
 -12.465  0.257E+00  0.254E+00
 -12.455  0.272E+00  0.269E+00
 -12.445  0.288E+00  0.285E+00
 -12.435  0.305E+00  0.302E+00
 -12.425  0.323E+00  0.320E+00
 -12.415  0.340E+00  0.337E+00
 -12.405  0.356E+00  0.353E+00
 -12.395  0.371E+00  0.368E+00
 -12.385  0.385E+00  0.381E+00
 -12.375  0.396E+00  0.392E+00
 -12.365  0.405E+00  0.401E+00
 -12.355  0.411E+00  0.407E+00
 -12.345  0.415E+00  0.411E+00
 -12.335  0.416E+00  0.412E+00
 -12.325  0.415E+00  0.410E+00
 -12.315  0.411E+00  0.407E+00
 -12.305  0.405E+00  0.401E+00
 -12.295  0.398E+00  0.394E+00
 -12.285  0.389E+00  0.385E+00
 -12.275  0.380E+00  0.376E+00
 -12.265  0.370E+00  0.366E+00
 -12.255  0.361E+00  0.357E+00
 -12.245  0.353E+00  0.349E+00
 -12.235  0.346E+00  0.342E+00
 -12.225  0.340E+00  0.336E+00
 -12.215  0.337E+00  0.333E+00
 -12.205  0.335E+00  0.331E+00
 -12.195  0.336E+00  0.332E+00
 -12.185  0.338E+00  0.334E+00
 -12.175  0.343E+00  0.339E+00
 -12.165  0.350E+00  0.346E+00
 -12.155  0.358E+00  0.354E+00
 -12.145  0.368E+00  0.364E+00
 -12.135  0.378E+00  0.374E+00
 -12.125  0.389E+00  0.385E+00
 -12.115  0.400E+00  0.395E+00
 -12.105  0.410E+00  0.405E+00
 -12.095  0.419E+00  0.414E+00
 -12.085  0.427E+00  0.422E+00
 -12.075  0.433E+00  0.428E+00
 -12.065  0.437E+00  0.432E+00
 -12.055  0.439E+00  0.434E+00
 -12.045  0.438E+00  0.434E+00
 -12.035  0.436E+00  0.431E+00
 -12.025  0.432E+00  0.427E+00
 -12.015  0.426E+00  0.421E+00
 -12.005  0.418E+00  0.414E+00
 -11.995  0.410E+00  0.405E+00
 -11.985  0.400E+00  0.396E+00
 -11.975  0.391E+00  0.387E+00
 -11.965  0.381E+00  0.377E+00
 -11.955  0.373E+00  0.369E+00
 -11.945  0.365E+00  0.361E+00
 -11.935  0.359E+00  0.355E+00
 -11.925  0.354E+00  0.350E+00
 -11.915  0.351E+00  0.348E+00
 -11.905  0.351E+00  0.347E+00
 -11.895  0.353E+00  0.349E+00
 -11.885  0.356E+00  0.353E+00
 -11.875  0.362E+00  0.359E+00
 -11.865  0.370E+00  0.366E+00
 -11.855  0.380E+00  0.376E+00
 -11.845  0.391E+00  0.387E+00
 -11.835  0.403E+00  0.399E+00
 -11.825  0.415E+00  0.411E+00
 -11.815  0.428E+00  0.423E+00
 -11.805  0.440E+00  0.436E+00
 -11.795  0.451E+00  0.447E+00
 -11.785  0.462E+00  0.457E+00
 -11.775  0.470E+00  0.465E+00
 -11.765  0.476E+00  0.471E+00
 -11.755  0.480E+00  0.475E+00
 -11.745  0.482E+00  0.477E+00
 -11.735  0.480E+00  0.475E+00
 -11.725  0.476E+00  0.471E+00
 -11.715  0.469E+00  0.464E+00
 -11.705  0.460E+00  0.455E+00
 -11.695  0.448E+00  0.443E+00
 -11.685  0.434E+00  0.430E+00
 -11.675  0.419E+00  0.415E+00
 -11.665  0.404E+00  0.399E+00
 -11.655  0.387E+00  0.383E+00
 -11.645  0.371E+00  0.367E+00
 -11.635  0.355E+00  0.352E+00
 -11.625  0.341E+00  0.337E+00
 -11.615  0.328E+00  0.325E+00
 -11.605  0.318E+00  0.314E+00
 -11.595  0.310E+00  0.306E+00
 -11.585  0.304E+00  0.301E+00
 -11.575  0.302E+00  0.299E+00
 -11.565  0.303E+00  0.300E+00
 -11.555  0.308E+00  0.305E+00
 -11.545  0.315E+00  0.312E+00
 -11.535  0.326E+00  0.323E+00
 -11.525  0.339E+00  0.336E+00
 -11.515  0.356E+00  0.352E+00
 -11.505  0.374E+00  0.370E+00
 -11.495  0.393E+00  0.390E+00
 -11.485  0.414E+00  0.410E+00
 -11.475  0.435E+00  0.431E+00
 -11.465  0.456E+00  0.452E+00
 -11.455  0.476E+00  0.472E+00
 -11.445  0.494E+00  0.490E+00
 -11.435  0.511E+00  0.506E+00
 -11.425  0.524E+00  0.519E+00
 -11.415  0.534E+00  0.529E+00
 -11.405  0.540E+00  0.535E+00
 -11.395  0.543E+00  0.538E+00
 -11.385  0.542E+00  0.537E+00
 -11.375  0.537E+00  0.532E+00
 -11.365  0.528E+00  0.523E+00
 -11.355  0.516E+00  0.511E+00
 -11.345  0.501E+00  0.496E+00
 -11.335  0.484E+00  0.479E+00
 -11.325  0.465E+00  0.460E+00
 -11.315  0.445E+00  0.441E+00
 -11.305  0.425E+00  0.421E+00
 -11.295  0.405E+00  0.401E+00
 -11.285  0.386E+00  0.382E+00
 -11.275  0.368E+00  0.365E+00
 -11.265  0.353E+00  0.349E+00
 -11.255  0.340E+00  0.337E+00
 -11.245  0.330E+00  0.326E+00
 -11.235  0.322E+00  0.319E+00
 -11.225  0.318E+00  0.315E+00
 -11.215  0.317E+00  0.313E+00
 -11.205  0.318E+00  0.315E+00
 -11.195  0.322E+00  0.319E+00
 -11.185  0.329E+00  0.326E+00
 -11.175  0.338E+00  0.335E+00
 -11.165  0.348E+00  0.345E+00
 -11.155  0.360E+00  0.357E+00
 -11.145  0.373E+00  0.370E+00
 -11.135  0.387E+00  0.383E+00
 -11.125  0.400E+00  0.397E+00
 -11.115  0.414E+00  0.410E+00
 -11.105  0.427E+00  0.423E+00
 -11.095  0.439E+00  0.435E+00
 -11.085  0.451E+00  0.447E+00
 -11.075  0.461E+00  0.457E+00
 -11.065  0.471E+00  0.466E+00
 -11.055  0.478E+00  0.474E+00
 -11.045  0.485E+00  0.481E+00
 -11.035  0.490E+00  0.486E+00
 -11.025  0.493E+00  0.489E+00
 -11.015  0.495E+00  0.491E+00
 -11.005  0.496E+00  0.492E+00
 -10.995  0.495E+00  0.491E+00
 -10.985  0.493E+00  0.489E+00
 -10.975  0.490E+00  0.485E+00
 -10.965  0.485E+00  0.481E+00
 -10.955  0.480E+00  0.476E+00
 -10.945  0.474E+00  0.470E+00
 -10.935  0.468E+00  0.463E+00
 -10.925  0.461E+00  0.457E+00
 -10.915  0.454E+00  0.450E+00
 -10.905  0.448E+00  0.444E+00
 -10.895  0.442E+00  0.438E+00
 -10.885  0.436E+00  0.432E+00
 -10.875  0.432E+00  0.428E+00
 -10.865  0.428E+00  0.425E+00
 -10.855  0.426E+00  0.422E+00
 -10.845  0.425E+00  0.421E+00
 -10.835  0.425E+00  0.421E+00
 -10.825  0.425E+00  0.422E+00
 -10.815  0.427E+00  0.423E+00
 -10.805  0.429E+00  0.425E+00
 -10.795  0.431E+00  0.427E+00
 -10.785  0.433E+00  0.429E+00
 -10.775  0.434E+00  0.430E+00
 -10.765  0.435E+00  0.431E+00
 -10.755  0.435E+00  0.431E+00
 -10.745  0.434E+00  0.430E+00
 -10.735  0.432E+00  0.428E+00
 -10.725  0.429E+00  0.425E+00
 -10.715  0.425E+00  0.421E+00
 -10.705  0.420E+00  0.416E+00
 -10.695  0.414E+00  0.411E+00
 -10.685  0.409E+00  0.405E+00
 -10.675  0.403E+00  0.400E+00
 -10.665  0.399E+00  0.395E+00
 -10.655  0.395E+00  0.391E+00
 -10.645  0.393E+00  0.389E+00
 -10.635  0.392E+00  0.389E+00
 -10.625  0.393E+00  0.390E+00
 -10.615  0.397E+00  0.393E+00
 -10.605  0.402E+00  0.399E+00
 -10.595  0.410E+00  0.406E+00
 -10.585  0.419E+00  0.416E+00
 -10.575  0.431E+00  0.427E+00
 -10.565  0.443E+00  0.440E+00
 -10.555  0.457E+00  0.453E+00
 -10.545  0.471E+00  0.467E+00
 -10.535  0.485E+00  0.481E+00
 -10.525  0.499E+00  0.495E+00
 -10.515  0.513E+00  0.509E+00
 -10.505  0.525E+00  0.521E+00
 -10.495  0.535E+00  0.531E+00
 -10.485  0.544E+00  0.540E+00
 -10.475  0.551E+00  0.547E+00
 -10.465  0.556E+00  0.552E+00
 -10.455  0.558E+00  0.554E+00
 -10.445  0.558E+00  0.554E+00
 -10.435  0.556E+00  0.552E+00
 -10.425  0.552E+00  0.547E+00
 -10.415  0.545E+00  0.541E+00
 -10.405  0.536E+00  0.532E+00
 -10.395  0.526E+00  0.522E+00
 -10.385  0.514E+00  0.510E+00
 -10.375  0.501E+00  0.497E+00
 -10.365  0.488E+00  0.484E+00
 -10.355  0.473E+00  0.469E+00
 -10.345  0.459E+00  0.455E+00
 -10.335  0.444E+00  0.440E+00
 -10.325  0.430E+00  0.427E+00
 -10.315  0.417E+00  0.413E+00
 -10.305  0.405E+00  0.401E+00
 -10.295  0.394E+00  0.391E+00
 -10.285  0.385E+00  0.382E+00
 -10.275  0.378E+00  0.375E+00
 -10.265  0.373E+00  0.370E+00
 -10.255  0.370E+00  0.367E+00
 -10.245  0.369E+00  0.366E+00
 -10.235  0.371E+00  0.368E+00
 -10.225  0.375E+00  0.372E+00
 -10.215  0.382E+00  0.379E+00
 -10.205  0.391E+00  0.388E+00
 -10.195  0.402E+00  0.399E+00
 -10.185  0.416E+00  0.412E+00
 -10.175  0.431E+00  0.427E+00
 -10.165  0.447E+00  0.444E+00
 -10.155  0.465E+00  0.461E+00
 -10.145  0.483E+00  0.480E+00
 -10.135  0.502E+00  0.498E+00
 -10.125  0.520E+00  0.517E+00
 -10.115  0.538E+00  0.534E+00
 -10.105  0.555E+00  0.551E+00
 -10.095  0.570E+00  0.566E+00
 -10.085  0.584E+00  0.579E+00
 -10.075  0.595E+00  0.590E+00
 -10.065  0.603E+00  0.598E+00
 -10.055  0.608E+00  0.604E+00
 -10.045  0.611E+00  0.606E+00
 -10.035  0.610E+00  0.606E+00
 -10.025  0.606E+00  0.602E+00
 -10.015  0.600E+00  0.595E+00
 -10.005  0.591E+00  0.586E+00
  -9.995  0.580E+00  0.575E+00
  -9.985  0.566E+00  0.562E+00
  -9.975  0.552E+00  0.548E+00
  -9.965  0.536E+00  0.532E+00
  -9.955  0.521E+00  0.517E+00
  -9.945  0.505E+00  0.501E+00
  -9.935  0.490E+00  0.486E+00
  -9.925  0.476E+00  0.472E+00
  -9.915  0.463E+00  0.460E+00
  -9.905  0.453E+00  0.449E+00
  -9.895  0.444E+00  0.441E+00
  -9.885  0.438E+00  0.434E+00
  -9.875  0.434E+00  0.431E+00
  -9.865  0.432E+00  0.429E+00
  -9.855  0.433E+00  0.430E+00
  -9.845  0.436E+00  0.433E+00
  -9.835  0.442E+00  0.438E+00
  -9.825  0.449E+00  0.445E+00
  -9.815  0.457E+00  0.454E+00
  -9.805  0.467E+00  0.463E+00
  -9.795  0.477E+00  0.474E+00
  -9.785  0.489E+00  0.485E+00
  -9.775  0.500E+00  0.497E+00
  -9.765  0.512E+00  0.508E+00
  -9.755  0.523E+00  0.519E+00
  -9.745  0.534E+00  0.530E+00
  -9.735  0.545E+00  0.541E+00
  -9.725  0.555E+00  0.551E+00
  -9.715  0.565E+00  0.561E+00
  -9.705  0.575E+00  0.570E+00
  -9.695  0.583E+00  0.579E+00
  -9.685  0.592E+00  0.587E+00
  -9.675  0.601E+00  0.595E+00
  -9.665  0.609E+00  0.604E+00
  -9.655  0.617E+00  0.612E+00
  -9.645  0.625E+00  0.620E+00
  -9.635  0.634E+00  0.628E+00
  -9.625  0.643E+00  0.636E+00
  -9.615  0.652E+00  0.645E+00
  -9.605  0.661E+00  0.654E+00
  -9.595  0.670E+00  0.663E+00
  -9.585  0.680E+00  0.672E+00
  -9.575  0.689E+00  0.681E+00
  -9.565  0.699E+00  0.690E+00
  -9.555  0.709E+00  0.700E+00
  -9.545  0.719E+00  0.709E+00
  -9.535  0.729E+00  0.719E+00
  -9.525  0.739E+00  0.728E+00
  -9.515  0.749E+00  0.738E+00
  -9.505  0.759E+00  0.747E+00
  -9.495  0.770E+00  0.757E+00
  -9.485  0.780E+00  0.767E+00
  -9.475  0.791E+00  0.777E+00
  -9.465  0.801E+00  0.788E+00
  -9.455  0.812E+00  0.798E+00
  -9.445  0.822E+00  0.808E+00
  -9.435  0.832E+00  0.818E+00
  -9.425  0.842E+00  0.828E+00
  -9.415  0.852E+00  0.837E+00
  -9.405  0.861E+00  0.846E+00
  -9.395  0.869E+00  0.854E+00
  -9.385  0.877E+00  0.861E+00
  -9.375  0.883E+00  0.867E+00
  -9.365  0.888E+00  0.873E+00
  -9.355  0.893E+00  0.877E+00
  -9.345  0.896E+00  0.880E+00
  -9.335  0.898E+00  0.883E+00
  -9.325  0.900E+00  0.884E+00
  -9.315  0.901E+00  0.885E+00
  -9.305  0.901E+00  0.885E+00
  -9.295  0.901E+00  0.886E+00
  -9.285  0.902E+00  0.886E+00
  -9.275  0.902E+00  0.887E+00
  -9.265  0.904E+00  0.888E+00
  -9.255  0.906E+00  0.890E+00
  -9.245  0.909E+00  0.894E+00
  -9.235  0.914E+00  0.899E+00
  -9.225  0.920E+00  0.905E+00
  -9.215  0.928E+00  0.913E+00
  -9.205  0.937E+00  0.922E+00
  -9.195  0.948E+00  0.933E+00
  -9.185  0.960E+00  0.945E+00
  -9.175  0.973E+00  0.958E+00
  -9.165  0.987E+00  0.972E+00
  -9.155  0.100E+01  0.986E+00
  -9.145  0.102E+01  0.100E+01
  -9.135  0.103E+01  0.102E+01
  -9.125  0.104E+01  0.103E+01
  -9.115  0.106E+01  0.104E+01
  -9.105  0.107E+01  0.106E+01
  -9.095  0.108E+01  0.107E+01
  -9.085  0.109E+01  0.108E+01
  -9.075  0.110E+01  0.109E+01
  -9.065  0.111E+01  0.109E+01
  -9.055  0.112E+01  0.110E+01
  -9.045  0.112E+01  0.111E+01
  -9.035  0.113E+01  0.111E+01
  -9.025  0.113E+01  0.112E+01
  -9.015  0.113E+01  0.112E+01
  -9.005  0.114E+01  0.112E+01
  -8.995  0.114E+01  0.113E+01
  -8.985  0.115E+01  0.113E+01
  -8.975  0.115E+01  0.114E+01
  -8.965  0.116E+01  0.114E+01
  -8.955  0.116E+01  0.115E+01
  -8.945  0.117E+01  0.115E+01
  -8.935  0.118E+01  0.116E+01
  -8.925  0.118E+01  0.117E+01
  -8.915  0.119E+01  0.117E+01
  -8.905  0.120E+01  0.118E+01
  -8.895  0.120E+01  0.119E+01
  -8.885  0.121E+01  0.119E+01
  -8.875  0.121E+01  0.120E+01
  -8.865  0.121E+01  0.120E+01
  -8.855  0.121E+01  0.120E+01
  -8.845  0.121E+01  0.120E+01
  -8.835  0.121E+01  0.119E+01
  -8.825  0.120E+01  0.119E+01
  -8.815  0.119E+01  0.118E+01
  -8.805  0.118E+01  0.117E+01
  -8.795  0.117E+01  0.116E+01
  -8.785  0.116E+01  0.114E+01
  -8.775  0.114E+01  0.113E+01
  -8.765  0.113E+01  0.112E+01
  -8.755  0.111E+01  0.110E+01
  -8.745  0.110E+01  0.109E+01
  -8.735  0.108E+01  0.107E+01
  -8.725  0.107E+01  0.106E+01
  -8.715  0.105E+01  0.104E+01
  -8.705  0.104E+01  0.103E+01
  -8.695  0.103E+01  0.101E+01
  -8.685  0.101E+01  0.100E+01
  -8.675  0.100E+01  0.991E+00
  -8.665  0.993E+00  0.981E+00
  -8.655  0.985E+00  0.973E+00
  -8.645  0.977E+00  0.965E+00
  -8.635  0.971E+00  0.959E+00
  -8.625  0.966E+00  0.954E+00
  -8.615  0.961E+00  0.950E+00
  -8.605  0.958E+00  0.946E+00
  -8.595  0.955E+00  0.943E+00
  -8.585  0.953E+00  0.941E+00
  -8.575  0.951E+00  0.940E+00
  -8.565  0.950E+00  0.939E+00
  -8.555  0.949E+00  0.938E+00
  -8.545  0.948E+00  0.937E+00
  -8.535  0.947E+00  0.936E+00
  -8.525  0.946E+00  0.935E+00
  -8.515  0.945E+00  0.934E+00
  -8.505  0.944E+00  0.933E+00
  -8.495  0.942E+00  0.931E+00
  -8.485  0.940E+00  0.929E+00
  -8.475  0.937E+00  0.926E+00
  -8.465  0.933E+00  0.922E+00
  -8.455  0.928E+00  0.918E+00
  -8.445  0.923E+00  0.913E+00
  -8.435  0.917E+00  0.907E+00
  -8.425  0.910E+00  0.900E+00
  -8.415  0.902E+00  0.892E+00
  -8.405  0.894E+00  0.883E+00
  -8.395  0.884E+00  0.874E+00
  -8.385  0.874E+00  0.864E+00
  -8.375  0.864E+00  0.853E+00
  -8.365  0.852E+00  0.842E+00
  -8.355  0.841E+00  0.831E+00
  -8.345  0.829E+00  0.819E+00
  -8.335  0.818E+00  0.808E+00
  -8.325  0.807E+00  0.797E+00
  -8.315  0.796E+00  0.786E+00
  -8.305  0.786E+00  0.777E+00
  -8.295  0.777E+00  0.768E+00
  -8.285  0.769E+00  0.760E+00
  -8.275  0.763E+00  0.754E+00
  -8.265  0.759E+00  0.750E+00
  -8.255  0.757E+00  0.748E+00
  -8.245  0.757E+00  0.748E+00
  -8.235  0.758E+00  0.750E+00
  -8.225  0.763E+00  0.754E+00
  -8.215  0.769E+00  0.760E+00
  -8.205  0.776E+00  0.768E+00
  -8.195  0.786E+00  0.777E+00
  -8.185  0.796E+00  0.788E+00
  -8.175  0.807E+00  0.799E+00
  -8.165  0.819E+00  0.810E+00
  -8.155  0.830E+00  0.821E+00
  -8.145  0.840E+00  0.832E+00
  -8.135  0.849E+00  0.841E+00
  -8.125  0.857E+00  0.848E+00
  -8.115  0.862E+00  0.853E+00
  -8.105  0.865E+00  0.856E+00
  -8.095  0.866E+00  0.857E+00
  -8.085  0.864E+00  0.855E+00
  -8.075  0.859E+00  0.850E+00
  -8.065  0.852E+00  0.843E+00
  -8.055  0.842E+00  0.834E+00
  -8.045  0.831E+00  0.823E+00
  -8.035  0.818E+00  0.810E+00
  -8.025  0.805E+00  0.796E+00
  -8.015  0.790E+00  0.782E+00
  -8.005  0.776E+00  0.768E+00
  -7.995  0.762E+00  0.754E+00
  -7.985  0.749E+00  0.741E+00
  -7.975  0.737E+00  0.730E+00
  -7.965  0.727E+00  0.720E+00
  -7.955  0.718E+00  0.711E+00
  -7.945  0.712E+00  0.705E+00
  -7.935  0.707E+00  0.700E+00
  -7.925  0.704E+00  0.697E+00
  -7.915  0.703E+00  0.696E+00
  -7.905  0.704E+00  0.697E+00
  -7.895  0.705E+00  0.698E+00
  -7.885  0.708E+00  0.701E+00
  -7.875  0.711E+00  0.704E+00
  -7.865  0.715E+00  0.708E+00
  -7.855  0.719E+00  0.712E+00
  -7.845  0.723E+00  0.716E+00
  -7.835  0.726E+00  0.719E+00
  -7.825  0.729E+00  0.722E+00
  -7.815  0.732E+00  0.724E+00
  -7.805  0.733E+00  0.726E+00
  -7.795  0.735E+00  0.727E+00
  -7.785  0.735E+00  0.728E+00
  -7.775  0.736E+00  0.729E+00
  -7.765  0.736E+00  0.729E+00
  -7.755  0.736E+00  0.729E+00
  -7.745  0.736E+00  0.729E+00
  -7.735  0.736E+00  0.729E+00
  -7.725  0.735E+00  0.729E+00
  -7.715  0.735E+00  0.729E+00
  -7.705  0.735E+00  0.729E+00
  -7.695  0.735E+00  0.728E+00
  -7.685  0.734E+00  0.728E+00
  -7.675  0.734E+00  0.728E+00
  -7.665  0.733E+00  0.727E+00
  -7.655  0.732E+00  0.726E+00
  -7.645  0.730E+00  0.724E+00
  -7.635  0.728E+00  0.722E+00
  -7.625  0.725E+00  0.719E+00
  -7.615  0.722E+00  0.716E+00
  -7.605  0.719E+00  0.713E+00
  -7.595  0.715E+00  0.709E+00
  -7.585  0.711E+00  0.706E+00
  -7.575  0.708E+00  0.702E+00
  -7.565  0.704E+00  0.698E+00
  -7.555  0.701E+00  0.695E+00
  -7.545  0.698E+00  0.692E+00
  -7.535  0.695E+00  0.689E+00
  -7.525  0.693E+00  0.688E+00
  -7.515  0.692E+00  0.686E+00
  -7.505  0.692E+00  0.686E+00
  -7.495  0.691E+00  0.686E+00
  -7.485  0.692E+00  0.686E+00
  -7.475  0.693E+00  0.687E+00
  -7.465  0.693E+00  0.688E+00
  -7.455  0.694E+00  0.689E+00
  -7.445  0.695E+00  0.689E+00
  -7.435  0.695E+00  0.689E+00
  -7.425  0.695E+00  0.689E+00
  -7.415  0.694E+00  0.688E+00
  -7.405  0.692E+00  0.687E+00
  -7.395  0.689E+00  0.684E+00
  -7.385  0.686E+00  0.680E+00
  -7.375  0.681E+00  0.676E+00
  -7.365  0.676E+00  0.671E+00
  -7.355  0.670E+00  0.665E+00
  -7.345  0.664E+00  0.659E+00
  -7.335  0.657E+00  0.652E+00
  -7.325  0.651E+00  0.646E+00
  -7.315  0.644E+00  0.640E+00
  -7.305  0.639E+00  0.634E+00
  -7.295  0.634E+00  0.630E+00
  -7.285  0.631E+00  0.627E+00
  -7.275  0.629E+00  0.625E+00
  -7.265  0.629E+00  0.625E+00
  -7.255  0.631E+00  0.627E+00
  -7.245  0.635E+00  0.630E+00
  -7.235  0.640E+00  0.636E+00
  -7.225  0.647E+00  0.643E+00
  -7.215  0.656E+00  0.652E+00
  -7.205  0.666E+00  0.661E+00
  -7.195  0.677E+00  0.672E+00
  -7.185  0.688E+00  0.683E+00
  -7.175  0.699E+00  0.694E+00
  -7.165  0.709E+00  0.704E+00
  -7.155  0.718E+00  0.713E+00
  -7.145  0.725E+00  0.721E+00
  -7.135  0.731E+00  0.726E+00
  -7.125  0.734E+00  0.729E+00
  -7.115  0.734E+00  0.729E+00
  -7.105  0.731E+00  0.726E+00
  -7.095  0.725E+00  0.720E+00
  -7.085  0.716E+00  0.712E+00
  -7.075  0.705E+00  0.700E+00
  -7.065  0.691E+00  0.687E+00
  -7.055  0.676E+00  0.672E+00
  -7.045  0.659E+00  0.655E+00
  -7.035  0.642E+00  0.638E+00
  -7.025  0.625E+00  0.621E+00
  -7.015  0.608E+00  0.604E+00
  -7.005  0.593E+00  0.589E+00
  -6.995  0.580E+00  0.576E+00
  -6.985  0.569E+00  0.565E+00
  -6.975  0.560E+00  0.557E+00
  -6.965  0.555E+00  0.552E+00
  -6.955  0.554E+00  0.550E+00
  -6.945  0.555E+00  0.552E+00
  -6.935  0.560E+00  0.557E+00
  -6.925  0.568E+00  0.565E+00
  -6.915  0.579E+00  0.576E+00
  -6.905  0.592E+00  0.589E+00
  -6.895  0.607E+00  0.603E+00
  -6.885  0.622E+00  0.619E+00
  -6.875  0.639E+00  0.635E+00
  -6.865  0.655E+00  0.651E+00
  -6.855  0.670E+00  0.666E+00
  -6.845  0.684E+00  0.680E+00
  -6.835  0.695E+00  0.691E+00
  -6.825  0.705E+00  0.701E+00
  -6.815  0.711E+00  0.707E+00
  -6.805  0.715E+00  0.711E+00
  -6.795  0.716E+00  0.712E+00
  -6.785  0.714E+00  0.710E+00
  -6.775  0.709E+00  0.706E+00
  -6.765  0.702E+00  0.699E+00
  -6.755  0.693E+00  0.690E+00
  -6.745  0.683E+00  0.679E+00
  -6.735  0.671E+00  0.667E+00
  -6.725  0.658E+00  0.654E+00
  -6.715  0.645E+00  0.641E+00
  -6.705  0.632E+00  0.629E+00
  -6.695  0.619E+00  0.616E+00
  -6.685  0.608E+00  0.605E+00
  -6.675  0.597E+00  0.594E+00
  -6.665  0.588E+00  0.585E+00
  -6.655  0.580E+00  0.577E+00
  -6.645  0.574E+00  0.571E+00
  -6.635  0.569E+00  0.566E+00
  -6.625  0.565E+00  0.563E+00
  -6.615  0.564E+00  0.561E+00
  -6.605  0.563E+00  0.561E+00
  -6.595  0.564E+00  0.562E+00
  -6.585  0.567E+00  0.564E+00
  -6.575  0.571E+00  0.568E+00
  -6.565  0.575E+00  0.573E+00
  -6.555  0.581E+00  0.578E+00
  -6.545  0.588E+00  0.585E+00
  -6.535  0.595E+00  0.592E+00
  -6.525  0.603E+00  0.601E+00
  -6.515  0.612E+00  0.609E+00
  -6.505  0.621E+00  0.618E+00
  -6.495  0.629E+00  0.626E+00
  -6.485  0.638E+00  0.635E+00
  -6.475  0.646E+00  0.643E+00
  -6.465  0.653E+00  0.650E+00
  -6.455  0.660E+00  0.657E+00
  -6.445  0.665E+00  0.662E+00
  -6.435  0.669E+00  0.666E+00
  -6.425  0.671E+00  0.668E+00
  -6.415  0.672E+00  0.669E+00
  -6.405  0.671E+00  0.668E+00
  -6.395  0.668E+00  0.665E+00
  -6.385  0.664E+00  0.661E+00
  -6.375  0.659E+00  0.656E+00
  -6.365  0.652E+00  0.649E+00
  -6.355  0.645E+00  0.642E+00
  -6.345  0.636E+00  0.633E+00
  -6.335  0.627E+00  0.625E+00
  -6.325  0.618E+00  0.616E+00
  -6.315  0.609E+00  0.606E+00
  -6.305  0.600E+00  0.598E+00
  -6.295  0.592E+00  0.589E+00
  -6.285  0.584E+00  0.581E+00
  -6.275  0.577E+00  0.574E+00
  -6.265  0.570E+00  0.568E+00
  -6.255  0.565E+00  0.563E+00
  -6.245  0.561E+00  0.559E+00
  -6.235  0.558E+00  0.555E+00
  -6.225  0.556E+00  0.553E+00
  -6.215  0.555E+00  0.552E+00
  -6.205  0.555E+00  0.553E+00
  -6.195  0.556E+00  0.554E+00
  -6.185  0.558E+00  0.556E+00
  -6.175  0.562E+00  0.559E+00
  -6.165  0.566E+00  0.564E+00
  -6.155  0.571E+00  0.569E+00
  -6.145  0.577E+00  0.575E+00
  -6.135  0.583E+00  0.581E+00
  -6.125  0.590E+00  0.588E+00
  -6.115  0.597E+00  0.594E+00
  -6.105  0.603E+00  0.601E+00
  -6.095  0.610E+00  0.607E+00
  -6.085  0.615E+00  0.613E+00
  -6.075  0.619E+00  0.617E+00
  -6.065  0.623E+00  0.620E+00
  -6.055  0.624E+00  0.622E+00
  -6.045  0.624E+00  0.621E+00
  -6.035  0.621E+00  0.619E+00
  -6.025  0.617E+00  0.614E+00
  -6.015  0.610E+00  0.608E+00
  -6.005  0.602E+00  0.599E+00
  -5.995  0.591E+00  0.589E+00
  -5.985  0.578E+00  0.576E+00
  -5.975  0.564E+00  0.562E+00
  -5.965  0.549E+00  0.546E+00
  -5.955  0.532E+00  0.530E+00
  -5.945  0.514E+00  0.512E+00
  -5.935  0.497E+00  0.495E+00
  -5.925  0.479E+00  0.477E+00
  -5.915  0.461E+00  0.459E+00
  -5.905  0.443E+00  0.441E+00
  -5.895  0.426E+00  0.425E+00
  -5.885  0.410E+00  0.409E+00
  -5.875  0.396E+00  0.394E+00
  -5.865  0.382E+00  0.381E+00
  -5.855  0.370E+00  0.369E+00
  -5.845  0.360E+00  0.358E+00
  -5.835  0.351E+00  0.349E+00
  -5.825  0.344E+00  0.342E+00
  -5.815  0.338E+00  0.337E+00
  -5.805  0.335E+00  0.333E+00
  -5.795  0.333E+00  0.332E+00
  -5.785  0.334E+00  0.332E+00
  -5.775  0.336E+00  0.334E+00
  -5.765  0.340E+00  0.338E+00
  -5.755  0.345E+00  0.344E+00
  -5.745  0.352E+00  0.351E+00
  -5.735  0.361E+00  0.359E+00
  -5.725  0.370E+00  0.369E+00
  -5.715  0.381E+00  0.379E+00
  -5.705  0.391E+00  0.390E+00
  -5.695  0.402E+00  0.401E+00
  -5.685  0.413E+00  0.412E+00
  -5.675  0.424E+00  0.422E+00
  -5.665  0.433E+00  0.431E+00
  -5.655  0.442E+00  0.440E+00
  -5.645  0.449E+00  0.447E+00
  -5.635  0.454E+00  0.453E+00
  -5.625  0.458E+00  0.457E+00
  -5.615  0.461E+00  0.459E+00
  -5.605  0.461E+00  0.460E+00
  -5.595  0.460E+00  0.459E+00
  -5.585  0.458E+00  0.456E+00
  -5.575  0.454E+00  0.452E+00
  -5.565  0.448E+00  0.447E+00
  -5.555  0.442E+00  0.440E+00
  -5.545  0.435E+00  0.433E+00
  -5.535  0.427E+00  0.425E+00
  -5.525  0.418E+00  0.417E+00
  -5.515  0.410E+00  0.408E+00
  -5.505  0.401E+00  0.400E+00
  -5.495  0.393E+00  0.392E+00
  -5.485  0.385E+00  0.384E+00
  -5.475  0.378E+00  0.376E+00
  -5.465  0.371E+00  0.370E+00
  -5.455  0.365E+00  0.364E+00
  -5.445  0.360E+00  0.359E+00
  -5.435  0.356E+00  0.355E+00
  -5.425  0.354E+00  0.353E+00
  -5.415  0.353E+00  0.351E+00
  -5.405  0.353E+00  0.352E+00
  -5.395  0.355E+00  0.354E+00
  -5.385  0.358E+00  0.357E+00
  -5.375  0.364E+00  0.362E+00
  -5.365  0.371E+00  0.369E+00
  -5.355  0.379E+00  0.378E+00
  -5.345  0.389E+00  0.388E+00
  -5.335  0.401E+00  0.400E+00
  -5.325  0.414E+00  0.413E+00
  -5.315  0.428E+00  0.426E+00
  -5.305  0.443E+00  0.441E+00
  -5.295  0.458E+00  0.456E+00
  -5.285  0.473E+00  0.471E+00
  -5.275  0.488E+00  0.487E+00
  -5.265  0.503E+00  0.501E+00
  -5.255  0.517E+00  0.515E+00
  -5.245  0.530E+00  0.528E+00
  -5.235  0.541E+00  0.539E+00
  -5.225  0.551E+00  0.549E+00
  -5.215  0.559E+00  0.558E+00
  -5.205  0.566E+00  0.564E+00
  -5.195  0.571E+00  0.569E+00
  -5.185  0.574E+00  0.572E+00
  -5.175  0.576E+00  0.574E+00
  -5.165  0.575E+00  0.574E+00
  -5.155  0.574E+00  0.572E+00
  -5.145  0.571E+00  0.569E+00
  -5.135  0.567E+00  0.565E+00
  -5.125  0.562E+00  0.561E+00
  -5.115  0.557E+00  0.555E+00
  -5.105  0.551E+00  0.550E+00
  -5.095  0.545E+00  0.544E+00
  -5.085  0.539E+00  0.538E+00
  -5.075  0.534E+00  0.532E+00
  -5.065  0.529E+00  0.527E+00
  -5.055  0.524E+00  0.522E+00
  -5.045  0.520E+00  0.519E+00
  -5.035  0.517E+00  0.516E+00
  -5.025  0.515E+00  0.514E+00
  -5.015  0.515E+00  0.514E+00
  -5.005  0.516E+00  0.515E+00
  -4.995  0.519E+00  0.517E+00
  -4.985  0.523E+00  0.521E+00
  -4.975  0.529E+00  0.527E+00
  -4.965  0.536E+00  0.535E+00
  -4.955  0.546E+00  0.544E+00
  -4.945  0.556E+00  0.555E+00
  -4.935  0.568E+00  0.567E+00
  -4.925  0.582E+00  0.580E+00
  -4.915  0.595E+00  0.594E+00
  -4.905  0.609E+00  0.608E+00
  -4.895  0.623E+00  0.621E+00
  -4.885  0.636E+00  0.634E+00
  -4.875  0.647E+00  0.645E+00
  -4.865  0.656E+00  0.654E+00
  -4.855  0.662E+00  0.660E+00
  -4.845  0.665E+00  0.663E+00
  -4.835  0.665E+00  0.663E+00
  -4.825  0.661E+00  0.659E+00
  -4.815  0.653E+00  0.651E+00
  -4.805  0.640E+00  0.638E+00
  -4.795  0.624E+00  0.622E+00
  -4.785  0.605E+00  0.603E+00
  -4.775  0.582E+00  0.580E+00
  -4.765  0.556E+00  0.555E+00
  -4.755  0.529E+00  0.527E+00
  -4.745  0.500E+00  0.499E+00
  -4.735  0.471E+00  0.469E+00
  -4.725  0.441E+00  0.440E+00
  -4.715  0.413E+00  0.412E+00
  -4.705  0.386E+00  0.385E+00
  -4.695  0.361E+00  0.360E+00
  -4.685  0.339E+00  0.338E+00
  -4.675  0.319E+00  0.318E+00
  -4.665  0.302E+00  0.301E+00
  -4.655  0.289E+00  0.288E+00
  -4.645  0.278E+00  0.278E+00
  -4.635  0.271E+00  0.271E+00
  -4.625  0.267E+00  0.267E+00
  -4.615  0.266E+00  0.266E+00
  -4.605  0.268E+00  0.267E+00
  -4.595  0.272E+00  0.271E+00
  -4.585  0.278E+00  0.277E+00
  -4.575  0.286E+00  0.285E+00
  -4.565  0.296E+00  0.295E+00
  -4.555  0.306E+00  0.305E+00
  -4.545  0.317E+00  0.316E+00
  -4.535  0.328E+00  0.327E+00
  -4.525  0.339E+00  0.338E+00
  -4.515  0.350E+00  0.349E+00
  -4.505  0.360E+00  0.359E+00
  -4.495  0.368E+00  0.367E+00
  -4.485  0.375E+00  0.374E+00
  -4.475  0.381E+00  0.380E+00
  -4.465  0.384E+00  0.383E+00
  -4.455  0.385E+00  0.384E+00
  -4.445  0.383E+00  0.382E+00
  -4.435  0.380E+00  0.379E+00
  -4.425  0.374E+00  0.373E+00
  -4.415  0.366E+00  0.365E+00
  -4.405  0.356E+00  0.355E+00
  -4.395  0.345E+00  0.343E+00
  -4.385  0.332E+00  0.331E+00
  -4.375  0.318E+00  0.317E+00
  -4.365  0.303E+00  0.302E+00
  -4.355  0.288E+00  0.287E+00
  -4.345  0.273E+00  0.272E+00
  -4.335  0.259E+00  0.258E+00
  -4.325  0.245E+00  0.244E+00
  -4.315  0.232E+00  0.231E+00
  -4.305  0.220E+00  0.219E+00
  -4.295  0.209E+00  0.209E+00
  -4.285  0.200E+00  0.200E+00
  -4.275  0.192E+00  0.192E+00
  -4.265  0.186E+00  0.186E+00
  -4.255  0.181E+00  0.181E+00
  -4.245  0.178E+00  0.177E+00
  -4.235  0.176E+00  0.175E+00
  -4.225  0.175E+00  0.175E+00
  -4.215  0.176E+00  0.175E+00
  -4.205  0.178E+00  0.177E+00
  -4.195  0.180E+00  0.180E+00
  -4.185  0.184E+00  0.183E+00
  -4.175  0.188E+00  0.188E+00
  -4.165  0.193E+00  0.193E+00
  -4.155  0.199E+00  0.198E+00
  -4.145  0.205E+00  0.204E+00
  -4.135  0.211E+00  0.210E+00
  -4.125  0.217E+00  0.217E+00
  -4.115  0.223E+00  0.223E+00
  -4.105  0.229E+00  0.228E+00
  -4.095  0.234E+00  0.233E+00
  -4.085  0.238E+00  0.237E+00
  -4.075  0.241E+00  0.240E+00
  -4.065  0.243E+00  0.243E+00
  -4.055  0.244E+00  0.243E+00
  -4.045  0.244E+00  0.243E+00
  -4.035  0.242E+00  0.241E+00
  -4.025  0.239E+00  0.238E+00
  -4.015  0.234E+00  0.233E+00
  -4.005  0.228E+00  0.227E+00
  -3.995  0.221E+00  0.220E+00
  -3.985  0.213E+00  0.212E+00
  -3.975  0.204E+00  0.203E+00
  -3.965  0.195E+00  0.194E+00
  -3.955  0.185E+00  0.185E+00
  -3.945  0.176E+00  0.175E+00
  -3.935  0.167E+00  0.166E+00
  -3.925  0.158E+00  0.157E+00
  -3.915  0.150E+00  0.149E+00
  -3.905  0.142E+00  0.142E+00
  -3.895  0.136E+00  0.135E+00
  -3.885  0.130E+00  0.130E+00
  -3.875  0.126E+00  0.125E+00
  -3.865  0.122E+00  0.122E+00
  -3.855  0.120E+00  0.120E+00
  -3.845  0.118E+00  0.118E+00
  -3.835  0.118E+00  0.117E+00
  -3.825  0.117E+00  0.117E+00
  -3.815  0.118E+00  0.117E+00
  -3.805  0.119E+00  0.118E+00
  -3.795  0.120E+00  0.120E+00
  -3.785  0.122E+00  0.122E+00
  -3.775  0.124E+00  0.123E+00
  -3.765  0.126E+00  0.125E+00
  -3.755  0.128E+00  0.128E+00
  -3.745  0.130E+00  0.130E+00
  -3.735  0.132E+00  0.132E+00
  -3.725  0.135E+00  0.134E+00
  -3.715  0.137E+00  0.136E+00
  -3.705  0.138E+00  0.138E+00
  -3.695  0.140E+00  0.139E+00
  -3.685  0.141E+00  0.141E+00
  -3.675  0.142E+00  0.142E+00
  -3.665  0.143E+00  0.142E+00
  -3.655  0.143E+00  0.142E+00
  -3.645  0.142E+00  0.142E+00
  -3.635  0.141E+00  0.141E+00
  -3.625  0.140E+00  0.139E+00
  -3.615  0.138E+00  0.137E+00
  -3.605  0.135E+00  0.135E+00
  -3.595  0.132E+00  0.132E+00
  -3.585  0.128E+00  0.128E+00
  -3.575  0.124E+00  0.124E+00
  -3.565  0.120E+00  0.119E+00
  -3.555  0.115E+00  0.115E+00
  -3.545  0.110E+00  0.110E+00
  -3.535  0.105E+00  0.105E+00
  -3.525  0.997E-01  0.993E-01
  -3.515  0.945E-01  0.941E-01
  -3.505  0.894E-01  0.890E-01
  -3.495  0.844E-01  0.841E-01
  -3.485  0.797E-01  0.793E-01
  -3.475  0.752E-01  0.749E-01
  -3.465  0.711E-01  0.708E-01
  -3.455  0.675E-01  0.672E-01
  -3.445  0.643E-01  0.640E-01
  -3.435  0.616E-01  0.614E-01
  -3.425  0.596E-01  0.593E-01
  -3.415  0.581E-01  0.578E-01
  -3.405  0.573E-01  0.570E-01
  -3.395  0.570E-01  0.568E-01
  -3.385  0.574E-01  0.572E-01
  -3.375  0.584E-01  0.581E-01
  -3.365  0.598E-01  0.596E-01
  -3.355  0.618E-01  0.615E-01
  -3.345  0.640E-01  0.637E-01
  -3.335  0.665E-01  0.661E-01
  -3.325  0.690E-01  0.687E-01
  -3.315  0.715E-01  0.712E-01
  -3.305  0.739E-01  0.735E-01
  -3.295  0.759E-01  0.756E-01
  -3.285  0.775E-01  0.772E-01
  -3.275  0.786E-01  0.783E-01
  -3.265  0.791E-01  0.787E-01
  -3.255  0.789E-01  0.785E-01
  -3.245  0.780E-01  0.776E-01
  -3.235  0.764E-01  0.760E-01
  -3.225  0.740E-01  0.737E-01
  -3.215  0.711E-01  0.708E-01
  -3.205  0.676E-01  0.673E-01
  -3.195  0.636E-01  0.633E-01
  -3.185  0.592E-01  0.589E-01
  -3.175  0.546E-01  0.543E-01
  -3.165  0.498E-01  0.496E-01
  -3.155  0.450E-01  0.448E-01
  -3.145  0.402E-01  0.401E-01
  -3.135  0.357E-01  0.355E-01
  -3.125  0.314E-01  0.312E-01
  -3.115  0.274E-01  0.272E-01
  -3.105  0.237E-01  0.236E-01
  -3.095  0.205E-01  0.204E-01
  -3.085  0.177E-01  0.177E-01
  -3.075  0.154E-01  0.153E-01
  -3.065  0.136E-01  0.135E-01
  -3.055  0.121E-01  0.121E-01
  -3.045  0.111E-01  0.111E-01
  -3.035  0.105E-01  0.105E-01
  -3.025  0.103E-01  0.103E-01
  -3.015  0.104E-01  0.104E-01
  -3.005  0.109E-01  0.108E-01
  -2.995  0.116E-01  0.115E-01
  -2.985  0.126E-01  0.125E-01
  -2.975  0.137E-01  0.136E-01
  -2.965  0.150E-01  0.149E-01
  -2.955  0.164E-01  0.163E-01
  -2.945  0.178E-01  0.177E-01
  -2.935  0.193E-01  0.191E-01
  -2.925  0.206E-01  0.205E-01
  -2.915  0.219E-01  0.218E-01
  -2.905  0.231E-01  0.230E-01
  -2.895  0.241E-01  0.239E-01
  -2.885  0.248E-01  0.247E-01
  -2.875  0.253E-01  0.252E-01
  -2.865  0.256E-01  0.255E-01
  -2.855  0.256E-01  0.255E-01
  -2.845  0.253E-01  0.252E-01
  -2.835  0.248E-01  0.246E-01
  -2.825  0.240E-01  0.239E-01
  -2.815  0.230E-01  0.229E-01
  -2.805  0.219E-01  0.217E-01
  -2.795  0.206E-01  0.205E-01
  -2.785  0.192E-01  0.191E-01
  -2.775  0.178E-01  0.177E-01
  -2.765  0.164E-01  0.163E-01
  -2.755  0.150E-01  0.149E-01
  -2.745  0.138E-01  0.137E-01
  -2.735  0.127E-01  0.126E-01
  -2.725  0.118E-01  0.117E-01
  -2.715  0.112E-01  0.111E-01
  -2.705  0.109E-01  0.108E-01
  -2.695  0.109E-01  0.108E-01
  -2.685  0.112E-01  0.111E-01
  -2.675  0.120E-01  0.119E-01
  -2.665  0.132E-01  0.131E-01
  -2.655  0.148E-01  0.147E-01
  -2.645  0.169E-01  0.167E-01
  -2.635  0.194E-01  0.192E-01
  -2.625  0.224E-01  0.222E-01
  -2.615  0.258E-01  0.256E-01
  -2.605  0.296E-01  0.294E-01
  -2.595  0.338E-01  0.335E-01
  -2.585  0.382E-01  0.380E-01
  -2.575  0.429E-01  0.426E-01
  -2.565  0.477E-01  0.474E-01
  -2.555  0.525E-01  0.522E-01
  -2.545  0.573E-01  0.569E-01
  -2.535  0.618E-01  0.614E-01
  -2.525  0.661E-01  0.656E-01
  -2.515  0.699E-01  0.694E-01
  -2.505  0.732E-01  0.727E-01
  -2.495  0.760E-01  0.754E-01
  -2.485  0.780E-01  0.775E-01
  -2.475  0.794E-01  0.789E-01
  -2.465  0.802E-01  0.796E-01
  -2.455  0.802E-01  0.796E-01
  -2.445  0.796E-01  0.791E-01
  -2.435  0.785E-01  0.779E-01
  -2.425  0.769E-01  0.764E-01
  -2.415  0.750E-01  0.745E-01
  -2.405  0.729E-01  0.724E-01
  -2.395  0.707E-01  0.701E-01
  -2.385  0.685E-01  0.680E-01
  -2.375  0.665E-01  0.660E-01
  -2.365  0.647E-01  0.642E-01
  -2.355  0.633E-01  0.628E-01
  -2.345  0.624E-01  0.618E-01
  -2.335  0.619E-01  0.614E-01
  -2.325  0.620E-01  0.615E-01
  -2.315  0.627E-01  0.622E-01
  -2.305  0.640E-01  0.634E-01
  -2.295  0.658E-01  0.653E-01
  -2.285  0.683E-01  0.677E-01
  -2.275  0.712E-01  0.706E-01
  -2.265  0.747E-01  0.741E-01
  -2.255  0.787E-01  0.780E-01
  -2.245  0.831E-01  0.823E-01
  -2.235  0.878E-01  0.871E-01
  -2.225  0.930E-01  0.921E-01
  -2.215  0.983E-01  0.975E-01
  -2.205  0.104E+00  0.103E+00
  -2.195  0.110E+00  0.109E+00
  -2.185  0.115E+00  0.114E+00
  -2.175  0.121E+00  0.120E+00
  -2.165  0.127E+00  0.126E+00
  -2.155  0.132E+00  0.131E+00
  -2.145  0.138E+00  0.136E+00
  -2.135  0.142E+00  0.141E+00
  -2.125  0.147E+00  0.145E+00
  -2.115  0.151E+00  0.149E+00
  -2.105  0.154E+00  0.152E+00
  -2.095  0.156E+00  0.155E+00
  -2.085  0.158E+00  0.157E+00
  -2.075  0.160E+00  0.158E+00
  -2.065  0.160E+00  0.158E+00
  -2.055  0.160E+00  0.158E+00
  -2.045  0.159E+00  0.157E+00
  -2.035  0.158E+00  0.156E+00
  -2.025  0.156E+00  0.154E+00
  -2.015  0.153E+00  0.152E+00
  -2.005  0.150E+00  0.149E+00
  -1.995  0.147E+00  0.146E+00
  -1.985  0.144E+00  0.142E+00
  -1.975  0.140E+00  0.139E+00
  -1.965  0.137E+00  0.136E+00
  -1.955  0.134E+00  0.133E+00
  -1.945  0.131E+00  0.130E+00
  -1.935  0.129E+00  0.128E+00
  -1.925  0.128E+00  0.126E+00
  -1.915  0.127E+00  0.126E+00
  -1.905  0.128E+00  0.126E+00
  -1.895  0.129E+00  0.128E+00
  -1.885  0.132E+00  0.130E+00
  -1.875  0.136E+00  0.134E+00
  -1.865  0.142E+00  0.140E+00
  -1.855  0.148E+00  0.146E+00
  -1.845  0.157E+00  0.154E+00
  -1.835  0.166E+00  0.164E+00
  -1.825  0.176E+00  0.174E+00
  -1.815  0.188E+00  0.185E+00
  -1.805  0.200E+00  0.198E+00
  -1.795  0.213E+00  0.210E+00
  -1.785  0.226E+00  0.223E+00
  -1.775  0.239E+00  0.236E+00
  -1.765  0.251E+00  0.248E+00
  -1.755  0.263E+00  0.260E+00
  -1.745  0.274E+00  0.270E+00
  -1.735  0.284E+00  0.280E+00
  -1.725  0.292E+00  0.288E+00
  -1.715  0.299E+00  0.295E+00
  -1.705  0.304E+00  0.299E+00
  -1.695  0.307E+00  0.302E+00
  -1.685  0.308E+00  0.303E+00
  -1.675  0.307E+00  0.302E+00
  -1.665  0.304E+00  0.300E+00
  -1.655  0.300E+00  0.295E+00
  -1.645  0.295E+00  0.290E+00
  -1.635  0.288E+00  0.284E+00
  -1.625  0.281E+00  0.277E+00
  -1.615  0.274E+00  0.269E+00
  -1.605  0.266E+00  0.262E+00
  -1.595  0.259E+00  0.255E+00
  -1.585  0.253E+00  0.249E+00
  -1.575  0.248E+00  0.244E+00
  -1.565  0.245E+00  0.240E+00
  -1.555  0.244E+00  0.239E+00
  -1.545  0.245E+00  0.240E+00
  -1.535  0.248E+00  0.243E+00
  -1.525  0.254E+00  0.249E+00
  -1.515  0.264E+00  0.258E+00
  -1.505  0.276E+00  0.269E+00
  -1.495  0.290E+00  0.284E+00
  -1.485  0.308E+00  0.301E+00
  -1.475  0.329E+00  0.321E+00
  -1.465  0.351E+00  0.343E+00
  -1.455  0.376E+00  0.367E+00
  -1.445  0.403E+00  0.393E+00
  -1.435  0.431E+00  0.420E+00
  -1.425  0.459E+00  0.448E+00
  -1.415  0.488E+00  0.476E+00
  -1.405  0.517E+00  0.504E+00
  -1.395  0.545E+00  0.531E+00
  -1.385  0.571E+00  0.557E+00
  -1.375  0.596E+00  0.581E+00
  -1.365  0.619E+00  0.603E+00
  -1.355  0.639E+00  0.622E+00
  -1.345  0.656E+00  0.639E+00
  -1.335  0.670E+00  0.652E+00
  -1.325  0.682E+00  0.663E+00
  -1.315  0.690E+00  0.671E+00
  -1.305  0.695E+00  0.675E+00
  -1.295  0.696E+00  0.677E+00
  -1.285  0.695E+00  0.675E+00
  -1.275  0.692E+00  0.672E+00
  -1.265  0.686E+00  0.666E+00
  -1.255  0.678E+00  0.657E+00
  -1.245  0.668E+00  0.648E+00
  -1.235  0.657E+00  0.636E+00
  -1.225  0.644E+00  0.624E+00
  -1.215  0.631E+00  0.611E+00
  -1.205  0.618E+00  0.598E+00
  -1.195  0.604E+00  0.584E+00
  -1.185  0.590E+00  0.571E+00
  -1.175  0.577E+00  0.558E+00
  -1.165  0.564E+00  0.545E+00
  -1.155  0.552E+00  0.534E+00
  -1.145  0.541E+00  0.523E+00
  -1.135  0.531E+00  0.513E+00
  -1.125  0.522E+00  0.504E+00
  -1.115  0.514E+00  0.496E+00
  -1.105  0.507E+00  0.490E+00
  -1.095  0.501E+00  0.485E+00
  -1.085  0.496E+00  0.480E+00
  -1.075  0.493E+00  0.477E+00
  -1.065  0.490E+00  0.475E+00
  -1.055  0.489E+00  0.473E+00
  -1.045  0.488E+00  0.472E+00
  -1.035  0.487E+00  0.472E+00
  -1.025  0.488E+00  0.473E+00
  -1.015  0.489E+00  0.474E+00
  -1.005  0.490E+00  0.475E+00
  -0.995  0.491E+00  0.476E+00
  -0.985  0.492E+00  0.477E+00
  -0.975  0.493E+00  0.479E+00
  -0.965  0.494E+00  0.480E+00
  -0.955  0.495E+00  0.480E+00
  -0.945  0.495E+00  0.481E+00
  -0.935  0.494E+00  0.480E+00
  -0.925  0.493E+00  0.479E+00
  -0.915  0.490E+00  0.477E+00
  -0.905  0.487E+00  0.474E+00
  -0.895  0.483E+00  0.469E+00
  -0.885  0.477E+00  0.464E+00
  -0.875  0.471E+00  0.458E+00
  -0.865  0.463E+00  0.450E+00
  -0.855  0.455E+00  0.442E+00
  -0.845  0.445E+00  0.432E+00
  -0.835  0.435E+00  0.422E+00
  -0.825  0.423E+00  0.411E+00
  -0.815  0.412E+00  0.400E+00
  -0.805  0.400E+00  0.388E+00
  -0.795  0.389E+00  0.377E+00
  -0.785  0.377E+00  0.366E+00
  -0.775  0.366E+00  0.355E+00
  -0.765  0.356E+00  0.345E+00
  -0.755  0.347E+00  0.336E+00
  -0.745  0.339E+00  0.328E+00
  -0.735  0.332E+00  0.322E+00
  -0.725  0.327E+00  0.317E+00
  -0.715  0.323E+00  0.313E+00
  -0.705  0.320E+00  0.310E+00
  -0.695  0.319E+00  0.308E+00
  -0.685  0.318E+00  0.308E+00
  -0.675  0.319E+00  0.309E+00
  -0.665  0.321E+00  0.310E+00
  -0.655  0.323E+00  0.312E+00
  -0.645  0.326E+00  0.315E+00
  -0.635  0.328E+00  0.318E+00
  -0.625  0.332E+00  0.321E+00
  -0.615  0.335E+00  0.324E+00
  -0.605  0.338E+00  0.327E+00
  -0.595  0.341E+00  0.330E+00
  -0.585  0.344E+00  0.333E+00
  -0.575  0.347E+00  0.336E+00
  -0.565  0.350E+00  0.339E+00
  -0.555  0.353E+00  0.342E+00
  -0.545  0.356E+00  0.346E+00
  -0.535  0.359E+00  0.349E+00
  -0.525  0.363E+00  0.352E+00
  -0.515  0.366E+00  0.355E+00
  -0.505  0.369E+00  0.359E+00
  -0.495  0.373E+00  0.362E+00
  -0.485  0.376E+00  0.365E+00
  -0.475  0.379E+00  0.368E+00
  -0.465  0.381E+00  0.371E+00
  -0.455  0.383E+00  0.373E+00
  -0.445  0.385E+00  0.374E+00
  -0.435  0.385E+00  0.374E+00
  -0.425  0.384E+00  0.373E+00
  -0.415  0.382E+00  0.372E+00
  -0.405  0.379E+00  0.369E+00
  -0.395  0.375E+00  0.364E+00
  -0.385  0.370E+00  0.359E+00
  -0.375  0.363E+00  0.352E+00
  -0.365  0.355E+00  0.345E+00
  -0.355  0.347E+00  0.336E+00
  -0.345  0.337E+00  0.327E+00
  -0.335  0.327E+00  0.317E+00
  -0.325  0.317E+00  0.307E+00
  -0.315  0.307E+00  0.297E+00
  -0.305  0.297E+00  0.287E+00
  -0.295  0.287E+00  0.278E+00
  -0.285  0.278E+00  0.269E+00
  -0.275  0.270E+00  0.261E+00
  -0.265  0.263E+00  0.254E+00
  -0.255  0.257E+00  0.249E+00
  -0.245  0.253E+00  0.245E+00
  -0.235  0.250E+00  0.242E+00
  -0.225  0.248E+00  0.240E+00
  -0.215  0.248E+00  0.240E+00
  -0.205  0.250E+00  0.242E+00
  -0.195  0.253E+00  0.244E+00
  -0.185  0.257E+00  0.248E+00
  -0.175  0.261E+00  0.253E+00
  -0.165  0.267E+00  0.258E+00
  -0.155  0.273E+00  0.264E+00
  -0.145  0.280E+00  0.271E+00
  -0.135  0.286E+00  0.277E+00
  -0.125  0.293E+00  0.283E+00
  -0.115  0.299E+00  0.289E+00
  -0.105  0.304E+00  0.295E+00
  -0.095  0.310E+00  0.300E+00
  -0.085  0.314E+00  0.304E+00
  -0.075  0.318E+00  0.308E+00
  -0.065  0.321E+00  0.311E+00
  -0.055  0.323E+00  0.313E+00
  -0.045  0.325E+00  0.315E+00
  -0.035  0.326E+00  0.316E+00
  -0.025  0.327E+00  0.317E+00
  -0.015  0.327E+00  0.317E+00
  -0.005  0.327E+00  0.317E+00
   0.005  0.326E+00  0.317E+00
   0.015  0.326E+00  0.316E+00
   0.025  0.325E+00  0.316E+00
   0.035  0.324E+00  0.315E+00
   0.045  0.322E+00  0.313E+00
   0.055  0.321E+00  0.312E+00
   0.065  0.319E+00  0.310E+00
   0.075  0.317E+00  0.308E+00
   0.085  0.314E+00  0.305E+00
   0.095  0.311E+00  0.302E+00
   0.105  0.308E+00  0.299E+00
   0.115  0.304E+00  0.295E+00
   0.125  0.300E+00  0.291E+00
   0.135  0.296E+00  0.287E+00
   0.145  0.291E+00  0.282E+00
   0.155  0.286E+00  0.277E+00
   0.165  0.281E+00  0.272E+00
   0.175  0.275E+00  0.266E+00
   0.185  0.270E+00  0.261E+00
   0.195  0.264E+00  0.255E+00
   0.205  0.258E+00  0.250E+00
   0.215  0.253E+00  0.244E+00
   0.225  0.247E+00  0.239E+00
   0.235  0.242E+00  0.233E+00
   0.245  0.236E+00  0.228E+00
   0.255  0.231E+00  0.223E+00
   0.265  0.227E+00  0.219E+00
   0.275  0.223E+00  0.215E+00
   0.285  0.220E+00  0.212E+00
   0.295  0.217E+00  0.210E+00
   0.305  0.215E+00  0.208E+00
   0.315  0.215E+00  0.208E+00
   0.325  0.215E+00  0.208E+00
   0.335  0.217E+00  0.210E+00
   0.345  0.220E+00  0.213E+00
   0.355  0.224E+00  0.217E+00
   0.365  0.229E+00  0.222E+00
   0.375  0.236E+00  0.228E+00
   0.385  0.243E+00  0.235E+00
   0.395  0.251E+00  0.243E+00
   0.405  0.260E+00  0.252E+00
   0.415  0.269E+00  0.261E+00
   0.425  0.279E+00  0.270E+00
   0.435  0.288E+00  0.278E+00
   0.445  0.296E+00  0.287E+00
   0.455  0.304E+00  0.294E+00
   0.465  0.311E+00  0.301E+00
   0.475  0.317E+00  0.306E+00
   0.485  0.321E+00  0.310E+00
   0.495  0.324E+00  0.313E+00
   0.505  0.325E+00  0.314E+00
   0.515  0.325E+00  0.314E+00
   0.525  0.324E+00  0.312E+00
   0.535  0.321E+00  0.309E+00
   0.545  0.317E+00  0.305E+00
   0.555  0.312E+00  0.299E+00
   0.565  0.306E+00  0.292E+00
   0.575  0.300E+00  0.285E+00
   0.585  0.293E+00  0.276E+00
   0.595  0.286E+00  0.268E+00
   0.605  0.280E+00  0.259E+00
   0.615  0.274E+00  0.251E+00
   0.625  0.269E+00  0.243E+00
   0.635  0.265E+00  0.235E+00
   0.645  0.262E+00  0.228E+00
   0.655  0.260E+00  0.221E+00
   0.665  0.260E+00  0.216E+00
   0.675  0.262E+00  0.211E+00
   0.685  0.265E+00  0.207E+00
   0.695  0.270E+00  0.204E+00
   0.705  0.277E+00  0.203E+00
   0.715  0.284E+00  0.202E+00
   0.725  0.294E+00  0.202E+00
   0.735  0.304E+00  0.202E+00
   0.745  0.315E+00  0.203E+00
   0.755  0.327E+00  0.205E+00
   0.765  0.339E+00  0.207E+00
   0.775  0.352E+00  0.209E+00
   0.785  0.364E+00  0.212E+00
   0.795  0.376E+00  0.214E+00
   0.805  0.388E+00  0.216E+00
   0.815  0.398E+00  0.217E+00
   0.825  0.408E+00  0.219E+00
   0.835  0.417E+00  0.220E+00
   0.845  0.425E+00  0.220E+00
   0.855  0.432E+00  0.221E+00
   0.865  0.438E+00  0.221E+00
   0.875  0.444E+00  0.221E+00
   0.885  0.449E+00  0.221E+00
   0.895  0.453E+00  0.221E+00
   0.905  0.457E+00  0.222E+00
   0.915  0.462E+00  0.223E+00
   0.925  0.466E+00  0.225E+00
   0.935  0.471E+00  0.227E+00
   0.945  0.476E+00  0.231E+00
   0.955  0.481E+00  0.235E+00
   0.965  0.487E+00  0.239E+00
   0.975  0.494E+00  0.245E+00
   0.985  0.500E+00  0.251E+00
   0.995  0.507E+00  0.257E+00
   1.005  0.514E+00  0.263E+00
   1.015  0.521E+00  0.269E+00
   1.025  0.527E+00  0.275E+00
   1.035  0.532E+00  0.279E+00
   1.045  0.536E+00  0.284E+00
   1.055  0.539E+00  0.286E+00
   1.065  0.541E+00  0.288E+00
   1.075  0.541E+00  0.288E+00
   1.085  0.540E+00  0.287E+00
   1.095  0.537E+00  0.284E+00
   1.105  0.533E+00  0.280E+00
   1.115  0.528E+00  0.275E+00
   1.125  0.521E+00  0.268E+00
   1.135  0.513E+00  0.260E+00
   1.145  0.505E+00  0.252E+00
   1.155  0.496E+00  0.243E+00
   1.165  0.486E+00  0.233E+00
   1.175  0.477E+00  0.224E+00
   1.185  0.468E+00  0.214E+00
   1.195  0.459E+00  0.205E+00
   1.205  0.451E+00  0.197E+00
   1.215  0.444E+00  0.189E+00
   1.225  0.438E+00  0.182E+00
   1.235  0.433E+00  0.176E+00
   1.245  0.430E+00  0.171E+00
   1.255  0.428E+00  0.167E+00
   1.265  0.428E+00  0.164E+00
   1.275  0.430E+00  0.163E+00
   1.285  0.434E+00  0.162E+00
   1.295  0.440E+00  0.163E+00
   1.305  0.448E+00  0.165E+00
   1.315  0.458E+00  0.167E+00
   1.325  0.470E+00  0.171E+00
   1.335  0.483E+00  0.176E+00
   1.345  0.499E+00  0.181E+00
   1.355  0.515E+00  0.187E+00
   1.365  0.533E+00  0.194E+00
   1.375  0.552E+00  0.201E+00
   1.385  0.571E+00  0.208E+00
   1.395  0.591E+00  0.215E+00
   1.405  0.611E+00  0.222E+00
   1.415  0.632E+00  0.229E+00
   1.425  0.652E+00  0.236E+00
   1.435  0.672E+00  0.242E+00
   1.445  0.691E+00  0.247E+00
   1.455  0.710E+00  0.251E+00
   1.465  0.728E+00  0.255E+00
   1.475  0.746E+00  0.258E+00
   1.485  0.763E+00  0.260E+00
   1.495  0.780E+00  0.261E+00
   1.505  0.796E+00  0.261E+00
   1.515  0.811E+00  0.261E+00
   1.525  0.825E+00  0.260E+00
   1.535  0.839E+00  0.258E+00
   1.545  0.853E+00  0.256E+00
   1.555  0.865E+00  0.254E+00
   1.565  0.877E+00  0.251E+00
   1.575  0.888E+00  0.249E+00
   1.585  0.897E+00  0.246E+00
   1.595  0.906E+00  0.243E+00
   1.605  0.913E+00  0.240E+00
   1.615  0.920E+00  0.236E+00
   1.625  0.924E+00  0.233E+00
   1.635  0.928E+00  0.230E+00
   1.645  0.930E+00  0.227E+00
   1.655  0.931E+00  0.223E+00
   1.665  0.931E+00  0.220E+00
   1.675  0.930E+00  0.217E+00
   1.685  0.928E+00  0.214E+00
   1.695  0.926E+00  0.210E+00
   1.705  0.923E+00  0.207E+00
   1.715  0.921E+00  0.204E+00
   1.725  0.918E+00  0.201E+00
   1.735  0.916E+00  0.198E+00
   1.745  0.914E+00  0.195E+00
   1.755  0.913E+00  0.192E+00
   1.765  0.912E+00  0.189E+00
   1.775  0.912E+00  0.187E+00
   1.785  0.912E+00  0.184E+00
   1.795  0.913E+00  0.182E+00
   1.805  0.914E+00  0.180E+00
   1.815  0.915E+00  0.178E+00
   1.825  0.916E+00  0.176E+00
   1.835  0.917E+00  0.174E+00
   1.845  0.918E+00  0.173E+00
   1.855  0.918E+00  0.171E+00
   1.865  0.918E+00  0.171E+00
   1.875  0.918E+00  0.170E+00
   1.885  0.917E+00  0.170E+00
   1.895  0.916E+00  0.170E+00
   1.905  0.915E+00  0.172E+00
   1.915  0.915E+00  0.173E+00
   1.925  0.915E+00  0.176E+00
   1.935  0.915E+00  0.179E+00
   1.945  0.916E+00  0.183E+00
   1.955  0.918E+00  0.188E+00
   1.965  0.921E+00  0.194E+00
   1.975  0.926E+00  0.201E+00
   1.985  0.931E+00  0.208E+00
   1.995  0.937E+00  0.215E+00
   2.005  0.944E+00  0.223E+00
   2.015  0.952E+00  0.231E+00
   2.025  0.960E+00  0.239E+00
   2.035  0.968E+00  0.247E+00
   2.045  0.977E+00  0.254E+00
   2.055  0.984E+00  0.260E+00
   2.065  0.992E+00  0.264E+00
   2.075  0.998E+00  0.268E+00
   2.085  0.100E+01  0.270E+00
   2.095  0.101E+01  0.270E+00
   2.105  0.101E+01  0.269E+00
   2.115  0.101E+01  0.265E+00
   2.125  0.101E+01  0.261E+00
   2.135  0.101E+01  0.255E+00
   2.145  0.100E+01  0.248E+00
   2.155  0.995E+00  0.239E+00
   2.165  0.987E+00  0.230E+00
   2.175  0.979E+00  0.220E+00
   2.185  0.969E+00  0.211E+00
   2.195  0.958E+00  0.201E+00
   2.205  0.947E+00  0.191E+00
   2.215  0.935E+00  0.183E+00
   2.225  0.924E+00  0.174E+00
   2.235  0.912E+00  0.167E+00
   2.245  0.901E+00  0.161E+00
   2.255  0.891E+00  0.156E+00
   2.265  0.881E+00  0.152E+00
   2.275  0.873E+00  0.149E+00
   2.285  0.866E+00  0.148E+00
   2.295  0.861E+00  0.147E+00
   2.305  0.858E+00  0.147E+00
   2.315  0.857E+00  0.148E+00
   2.325  0.857E+00  0.150E+00
   2.335  0.860E+00  0.152E+00
   2.345  0.864E+00  0.155E+00
   2.355  0.871E+00  0.158E+00
   2.365  0.879E+00  0.161E+00
   2.375  0.888E+00  0.165E+00
   2.385  0.899E+00  0.169E+00
   2.395  0.911E+00  0.172E+00
   2.405  0.924E+00  0.176E+00
   2.415  0.938E+00  0.179E+00
   2.425  0.952E+00  0.183E+00
   2.435  0.965E+00  0.186E+00
   2.445  0.979E+00  0.189E+00
   2.455  0.992E+00  0.191E+00
   2.465  0.101E+01  0.194E+00
   2.475  0.102E+01  0.196E+00
   2.485  0.103E+01  0.198E+00
   2.495  0.104E+01  0.200E+00
   2.505  0.105E+01  0.201E+00
   2.515  0.106E+01  0.203E+00
   2.525  0.107E+01  0.204E+00
   2.535  0.107E+01  0.206E+00
   2.545  0.108E+01  0.207E+00
   2.555  0.109E+01  0.209E+00
   2.565  0.109E+01  0.211E+00
   2.575  0.110E+01  0.213E+00
   2.585  0.111E+01  0.216E+00
   2.595  0.111E+01  0.218E+00
   2.605  0.112E+01  0.220E+00
   2.615  0.112E+01  0.223E+00
   2.625  0.113E+01  0.225E+00
   2.635  0.113E+01  0.227E+00
   2.645  0.114E+01  0.228E+00
   2.655  0.114E+01  0.229E+00
   2.665  0.115E+01  0.229E+00
   2.675  0.115E+01  0.228E+00
   2.685  0.115E+01  0.227E+00
   2.695  0.116E+01  0.224E+00
   2.705  0.116E+01  0.221E+00
   2.715  0.116E+01  0.217E+00
   2.725  0.117E+01  0.212E+00
   2.735  0.117E+01  0.206E+00
   2.745  0.117E+01  0.200E+00
   2.755  0.117E+01  0.193E+00
   2.765  0.117E+01  0.186E+00
   2.775  0.117E+01  0.178E+00
   2.785  0.117E+01  0.171E+00
   2.795  0.117E+01  0.164E+00
   2.805  0.117E+01  0.158E+00
   2.815  0.117E+01  0.152E+00
   2.825  0.117E+01  0.147E+00
   2.835  0.117E+01  0.142E+00
   2.845  0.117E+01  0.139E+00
   2.855  0.116E+01  0.136E+00
   2.865  0.116E+01  0.135E+00
   2.875  0.116E+01  0.134E+00
   2.885  0.115E+01  0.135E+00
   2.895  0.115E+01  0.136E+00
   2.905  0.115E+01  0.139E+00
   2.915  0.115E+01  0.142E+00
   2.925  0.115E+01  0.147E+00
   2.935  0.115E+01  0.152E+00
   2.945  0.115E+01  0.159E+00
   2.955  0.115E+01  0.166E+00
   2.965  0.115E+01  0.175E+00
   2.975  0.116E+01  0.184E+00
   2.985  0.117E+01  0.195E+00
   2.995  0.117E+01  0.206E+00
   3.005  0.118E+01  0.219E+00
   3.015  0.120E+01  0.233E+00
   3.025  0.121E+01  0.248E+00
   3.035  0.123E+01  0.264E+00
   3.045  0.125E+01  0.281E+00
   3.055  0.127E+01  0.299E+00
   3.065  0.129E+01  0.317E+00
   3.075  0.131E+01  0.336E+00
   3.085  0.134E+01  0.356E+00
   3.095  0.136E+01  0.376E+00
   3.105  0.139E+01  0.396E+00
   3.115  0.142E+01  0.416E+00
   3.125  0.145E+01  0.435E+00
   3.135  0.147E+01  0.454E+00
   3.145  0.150E+01  0.472E+00
   3.155  0.153E+01  0.489E+00
   3.165  0.155E+01  0.504E+00
   3.175  0.157E+01  0.518E+00
   3.185  0.159E+01  0.530E+00
   3.195  0.160E+01  0.540E+00
   3.205  0.162E+01  0.548E+00
   3.215  0.162E+01  0.555E+00
   3.225  0.163E+01  0.559E+00
   3.235  0.163E+01  0.562E+00
   3.245  0.162E+01  0.564E+00
   3.255  0.161E+01  0.564E+00
   3.265  0.161E+01  0.563E+00
   3.275  0.159E+01  0.561E+00
   3.285  0.158E+01  0.559E+00
   3.295  0.157E+01  0.557E+00
   3.305  0.156E+01  0.555E+00
   3.315  0.155E+01  0.554E+00
   3.325  0.154E+01  0.554E+00
   3.335  0.153E+01  0.555E+00
   3.345  0.153E+01  0.557E+00
   3.355  0.152E+01  0.561E+00
   3.365  0.153E+01  0.566E+00
   3.375  0.153E+01  0.572E+00
   3.385  0.154E+01  0.580E+00
   3.395  0.155E+01  0.588E+00
   3.405  0.156E+01  0.598E+00
   3.415  0.157E+01  0.607E+00
   3.425  0.159E+01  0.617E+00
   3.435  0.160E+01  0.627E+00
   3.445  0.162E+01  0.636E+00
   3.455  0.163E+01  0.644E+00
   3.465  0.164E+01  0.651E+00
   3.475  0.166E+01  0.657E+00
   3.485  0.167E+01  0.662E+00
   3.495  0.168E+01  0.665E+00
   3.505  0.169E+01  0.667E+00
   3.515  0.170E+01  0.668E+00
   3.525  0.170E+01  0.667E+00
   3.535  0.171E+01  0.665E+00
   3.545  0.171E+01  0.663E+00
   3.555  0.172E+01  0.660E+00
   3.565  0.172E+01  0.656E+00
   3.575  0.173E+01  0.653E+00
   3.585  0.173E+01  0.649E+00
   3.595  0.174E+01  0.646E+00
   3.605  0.174E+01  0.644E+00
   3.615  0.175E+01  0.642E+00
   3.625  0.175E+01  0.640E+00
   3.635  0.175E+01  0.640E+00
   3.645  0.175E+01  0.641E+00
   3.655  0.175E+01  0.642E+00
   3.665  0.175E+01  0.644E+00
   3.675  0.175E+01  0.646E+00
   3.685  0.175E+01  0.649E+00
   3.695  0.174E+01  0.652E+00
   3.705  0.174E+01  0.655E+00
   3.715  0.173E+01  0.658E+00
   3.725  0.172E+01  0.660E+00
   3.735  0.171E+01  0.662E+00
   3.745  0.169E+01  0.663E+00
   3.755  0.168E+01  0.662E+00
   3.765  0.167E+01  0.661E+00
   3.775  0.165E+01  0.659E+00
   3.785  0.164E+01  0.655E+00
   3.795  0.163E+01  0.650E+00
   3.805  0.161E+01  0.644E+00
   3.815  0.160E+01  0.637E+00
   3.825  0.158E+01  0.629E+00
   3.835  0.157E+01  0.619E+00
   3.845  0.156E+01  0.609E+00
   3.855  0.154E+01  0.598E+00
   3.865  0.153E+01  0.586E+00
   3.875  0.152E+01  0.573E+00
   3.885  0.150E+01  0.559E+00
   3.895  0.149E+01  0.545E+00
   3.905  0.147E+01  0.530E+00
   3.915  0.146E+01  0.515E+00
   3.925  0.144E+01  0.499E+00
   3.935  0.142E+01  0.483E+00
   3.945  0.140E+01  0.466E+00
   3.955  0.138E+01  0.449E+00
   3.965  0.136E+01  0.431E+00
   3.975  0.133E+01  0.413E+00
   3.985  0.131E+01  0.395E+00
   3.995  0.128E+01  0.378E+00
   4.005  0.126E+01  0.360E+00
   4.015  0.123E+01  0.342E+00
   4.025  0.120E+01  0.326E+00
   4.035  0.118E+01  0.309E+00
   4.045  0.115E+01  0.294E+00
   4.055  0.113E+01  0.279E+00
   4.065  0.110E+01  0.266E+00
   4.075  0.108E+01  0.254E+00
   4.085  0.106E+01  0.243E+00
   4.095  0.104E+01  0.234E+00
   4.105  0.102E+01  0.226E+00
   4.115  0.998E+00  0.220E+00
   4.125  0.983E+00  0.216E+00
   4.135  0.969E+00  0.214E+00
   4.145  0.958E+00  0.213E+00
   4.155  0.949E+00  0.214E+00
   4.165  0.942E+00  0.217E+00
   4.175  0.938E+00  0.221E+00
   4.185  0.935E+00  0.226E+00
   4.195  0.934E+00  0.233E+00
   4.205  0.934E+00  0.241E+00
   4.215  0.936E+00  0.249E+00
   4.225  0.939E+00  0.258E+00
   4.235  0.942E+00  0.268E+00
   4.245  0.945E+00  0.277E+00
   4.255  0.948E+00  0.286E+00
   4.265  0.950E+00  0.294E+00
   4.275  0.952E+00  0.302E+00
   4.285  0.953E+00  0.309E+00
   4.295  0.953E+00  0.314E+00
   4.305  0.951E+00  0.318E+00
   4.315  0.949E+00  0.321E+00
   4.325  0.946E+00  0.322E+00
   4.335  0.942E+00  0.322E+00
   4.345  0.938E+00  0.320E+00
   4.355  0.933E+00  0.318E+00
   4.365  0.929E+00  0.313E+00
   4.375  0.924E+00  0.308E+00
   4.385  0.920E+00  0.302E+00
   4.395  0.916E+00  0.295E+00
   4.405  0.912E+00  0.287E+00
   4.415  0.909E+00  0.279E+00
   4.425  0.907E+00  0.271E+00
   4.435  0.904E+00  0.262E+00
   4.445  0.903E+00  0.254E+00
   4.455  0.902E+00  0.245E+00
   4.465  0.900E+00  0.236E+00
   4.475  0.899E+00  0.228E+00
   4.485  0.898E+00  0.220E+00
   4.495  0.897E+00  0.212E+00
   4.505  0.895E+00  0.204E+00
   4.515  0.893E+00  0.197E+00
   4.525  0.890E+00  0.190E+00
   4.535  0.887E+00  0.183E+00
   4.545  0.883E+00  0.177E+00
   4.555  0.877E+00  0.171E+00
   4.565  0.871E+00  0.166E+00
   4.575  0.864E+00  0.160E+00
   4.585  0.856E+00  0.155E+00
   4.595  0.847E+00  0.151E+00
   4.605  0.837E+00  0.146E+00
   4.615  0.827E+00  0.142E+00
   4.625  0.816E+00  0.138E+00
   4.635  0.804E+00  0.135E+00
   4.645  0.792E+00  0.132E+00
   4.655  0.781E+00  0.129E+00
   4.665  0.769E+00  0.126E+00
   4.675  0.758E+00  0.124E+00
   4.685  0.748E+00  0.123E+00
   4.695  0.739E+00  0.122E+00
   4.705  0.731E+00  0.123E+00
   4.715  0.725E+00  0.124E+00
   4.725  0.721E+00  0.126E+00
   4.735  0.718E+00  0.129E+00
   4.745  0.718E+00  0.133E+00
   4.755  0.719E+00  0.139E+00
   4.765  0.723E+00  0.146E+00
   4.775  0.729E+00  0.153E+00
   4.785  0.737E+00  0.162E+00
   4.795  0.747E+00  0.172E+00
   4.805  0.759E+00  0.182E+00
   4.815  0.773E+00  0.193E+00
   4.825  0.788E+00  0.204E+00
   4.835  0.803E+00  0.215E+00
   4.845  0.819E+00  0.225E+00
   4.855  0.835E+00  0.236E+00
   4.865  0.851E+00  0.245E+00
   4.875  0.867E+00  0.254E+00
   4.885  0.881E+00  0.261E+00
   4.895  0.894E+00  0.267E+00
   4.905  0.905E+00  0.271E+00
   4.915  0.914E+00  0.274E+00
   4.925  0.921E+00  0.276E+00
   4.935  0.926E+00  0.276E+00
   4.945  0.929E+00  0.274E+00
   4.955  0.929E+00  0.271E+00
   4.965  0.926E+00  0.267E+00
   4.975  0.922E+00  0.262E+00
   4.985  0.916E+00  0.256E+00
   4.995  0.908E+00  0.250E+00
   5.005  0.898E+00  0.242E+00
   5.015  0.887E+00  0.234E+00
   5.025  0.876E+00  0.226E+00
   5.035  0.863E+00  0.218E+00
   5.045  0.851E+00  0.210E+00
   5.055  0.838E+00  0.202E+00
   5.065  0.825E+00  0.194E+00
   5.075  0.813E+00  0.186E+00
   5.085  0.802E+00  0.178E+00
   5.095  0.791E+00  0.171E+00
   5.105  0.781E+00  0.164E+00
   5.115  0.772E+00  0.157E+00
   5.125  0.764E+00  0.151E+00
   5.135  0.757E+00  0.145E+00
   5.145  0.750E+00  0.138E+00
   5.155  0.744E+00  0.133E+00
   5.165  0.738E+00  0.127E+00
   5.175  0.733E+00  0.121E+00
   5.185  0.727E+00  0.115E+00
   5.195  0.721E+00  0.109E+00
   5.205  0.715E+00  0.104E+00
   5.215  0.709E+00  0.979E-01
   5.225  0.702E+00  0.922E-01
   5.235  0.695E+00  0.867E-01
   5.245  0.687E+00  0.813E-01
   5.255  0.678E+00  0.762E-01
   5.265  0.670E+00  0.715E-01
   5.275  0.662E+00  0.672E-01
   5.285  0.653E+00  0.636E-01
   5.295  0.646E+00  0.606E-01
   5.305  0.639E+00  0.585E-01
   5.315  0.633E+00  0.574E-01
   5.325  0.629E+00  0.573E-01
   5.335  0.626E+00  0.583E-01
   5.345  0.626E+00  0.606E-01
   5.355  0.627E+00  0.641E-01
   5.365  0.631E+00  0.691E-01
   5.375  0.637E+00  0.753E-01
   5.385  0.645E+00  0.829E-01
   5.395  0.656E+00  0.918E-01
   5.405  0.668E+00  0.102E+00
   5.415  0.682E+00  0.113E+00
   5.425  0.698E+00  0.125E+00
   5.435  0.714E+00  0.138E+00
   5.445  0.731E+00  0.151E+00
   5.455  0.749E+00  0.165E+00
   5.465  0.766E+00  0.179E+00
   5.475  0.783E+00  0.192E+00
   5.485  0.799E+00  0.205E+00
   5.495  0.814E+00  0.217E+00
   5.505  0.828E+00  0.228E+00
   5.515  0.840E+00  0.237E+00
   5.525  0.850E+00  0.246E+00
   5.535  0.859E+00  0.252E+00
   5.545  0.865E+00  0.257E+00
   5.555  0.870E+00  0.260E+00
   5.565  0.872E+00  0.261E+00
   5.575  0.873E+00  0.261E+00
   5.585  0.872E+00  0.259E+00
   5.595  0.869E+00  0.255E+00
   5.605  0.865E+00  0.250E+00
   5.615  0.860E+00  0.244E+00
   5.625  0.853E+00  0.238E+00
   5.635  0.845E+00  0.230E+00
   5.645  0.836E+00  0.222E+00
   5.655  0.827E+00  0.214E+00
   5.665  0.817E+00  0.205E+00
   5.675  0.807E+00  0.197E+00
   5.685  0.798E+00  0.189E+00
   5.695  0.788E+00  0.181E+00
   5.705  0.779E+00  0.173E+00
   5.715  0.770E+00  0.166E+00
   5.725  0.761E+00  0.159E+00
   5.735  0.754E+00  0.153E+00
   5.745  0.747E+00  0.146E+00
   5.755  0.740E+00  0.140E+00
   5.765  0.735E+00  0.134E+00
   5.775  0.729E+00  0.127E+00
   5.785  0.724E+00  0.121E+00
   5.795  0.719E+00  0.115E+00
   5.805  0.714E+00  0.108E+00
   5.815  0.709E+00  0.101E+00
   5.825  0.704E+00  0.946E-01
   5.835  0.698E+00  0.877E-01
   5.845  0.691E+00  0.809E-01
   5.855  0.683E+00  0.741E-01
   5.865  0.675E+00  0.674E-01
   5.875  0.665E+00  0.609E-01
   5.885  0.654E+00  0.547E-01
   5.895  0.642E+00  0.488E-01
   5.905  0.629E+00  0.435E-01
   5.915  0.616E+00  0.386E-01
   5.925  0.602E+00  0.344E-01
   5.935  0.587E+00  0.308E-01
   5.945  0.573E+00  0.279E-01
   5.955  0.559E+00  0.258E-01
   5.965  0.546E+00  0.244E-01
   5.975  0.534E+00  0.240E-01
   5.985  0.524E+00  0.245E-01
   5.995  0.516E+00  0.259E-01
   6.005  0.511E+00  0.283E-01
   6.015  0.509E+00  0.317E-01
   6.025  0.510E+00  0.363E-01
   6.035  0.514E+00  0.419E-01
   6.045  0.522E+00  0.487E-01
   6.055  0.533E+00  0.566E-01
   6.065  0.549E+00  0.655E-01
   6.075  0.567E+00  0.755E-01
   6.085  0.589E+00  0.865E-01
   6.095  0.614E+00  0.983E-01
   6.105  0.640E+00  0.111E+00
   6.115  0.669E+00  0.124E+00
   6.125  0.699E+00  0.137E+00
   6.135  0.730E+00  0.151E+00
   6.145  0.760E+00  0.164E+00
   6.155  0.789E+00  0.176E+00
   6.165  0.817E+00  0.189E+00
   6.175  0.843E+00  0.200E+00
   6.185  0.866E+00  0.210E+00
   6.195  0.885E+00  0.218E+00
   6.205  0.901E+00  0.225E+00
   6.215  0.913E+00  0.231E+00
   6.225  0.921E+00  0.235E+00
   6.235  0.924E+00  0.237E+00
   6.245  0.924E+00  0.238E+00
   6.255  0.919E+00  0.237E+00
   6.265  0.912E+00  0.235E+00
   6.275  0.901E+00  0.232E+00
   6.285  0.887E+00  0.228E+00
   6.295  0.872E+00  0.223E+00
   6.305  0.855E+00  0.218E+00
   6.315  0.837E+00  0.212E+00
   6.325  0.818E+00  0.206E+00
   6.335  0.800E+00  0.199E+00
   6.345  0.782E+00  0.193E+00
   6.355  0.765E+00  0.186E+00
   6.365  0.748E+00  0.179E+00
   6.375  0.734E+00  0.172E+00
   6.385  0.720E+00  0.166E+00
   6.395  0.709E+00  0.158E+00
   6.405  0.698E+00  0.151E+00
   6.415  0.690E+00  0.144E+00
   6.425  0.682E+00  0.136E+00
   6.435  0.675E+00  0.128E+00
   6.445  0.669E+00  0.120E+00
   6.455  0.664E+00  0.112E+00
   6.465  0.659E+00  0.103E+00
   6.475  0.653E+00  0.949E-01
   6.485  0.647E+00  0.866E-01
   6.495  0.640E+00  0.785E-01
   6.505  0.632E+00  0.705E-01
   6.515  0.622E+00  0.629E-01
   6.525  0.612E+00  0.557E-01
   6.535  0.600E+00  0.490E-01
   6.545  0.587E+00  0.428E-01
   6.555  0.573E+00  0.371E-01
   6.565  0.558E+00  0.321E-01
   6.575  0.543E+00  0.277E-01
   6.585  0.529E+00  0.239E-01
   6.595  0.516E+00  0.207E-01
   6.605  0.504E+00  0.181E-01
   6.615  0.495E+00  0.162E-01
   6.625  0.487E+00  0.148E-01
   6.635  0.483E+00  0.140E-01
   6.645  0.482E+00  0.138E-01
   6.655  0.485E+00  0.142E-01
   6.665  0.491E+00  0.153E-01
   6.675  0.500E+00  0.169E-01
   6.685  0.513E+00  0.191E-01
   6.695  0.529E+00  0.221E-01
   6.705  0.548E+00  0.257E-01
   6.715  0.568E+00  0.300E-01
   6.725  0.591E+00  0.351E-01
   6.735  0.615E+00  0.410E-01
   6.745  0.639E+00  0.476E-01
   6.755  0.664E+00  0.551E-01
   6.765  0.688E+00  0.633E-01
   6.775  0.712E+00  0.722E-01
   6.785  0.734E+00  0.818E-01
   6.795  0.755E+00  0.919E-01
   6.805  0.774E+00  0.103E+00
   6.815  0.792E+00  0.114E+00
   6.825  0.807E+00  0.125E+00
   6.835  0.821E+00  0.136E+00
   6.845  0.832E+00  0.147E+00
   6.855  0.841E+00  0.157E+00
   6.865  0.848E+00  0.167E+00
   6.875  0.852E+00  0.177E+00
   6.885  0.855E+00  0.185E+00
   6.895  0.855E+00  0.193E+00
   6.905  0.853E+00  0.199E+00
   6.915  0.850E+00  0.205E+00
   6.925  0.844E+00  0.209E+00
   6.935  0.837E+00  0.211E+00
   6.945  0.828E+00  0.213E+00
   6.955  0.817E+00  0.213E+00
   6.965  0.805E+00  0.212E+00
   6.975  0.792E+00  0.211E+00
   6.985  0.778E+00  0.208E+00
   6.995  0.764E+00  0.204E+00
   7.005  0.749E+00  0.199E+00
   7.015  0.734E+00  0.194E+00
   7.025  0.719E+00  0.188E+00
   7.035  0.705E+00  0.181E+00
   7.045  0.691E+00  0.174E+00
   7.055  0.679E+00  0.166E+00
   7.065  0.668E+00  0.158E+00
   7.075  0.659E+00  0.149E+00
   7.085  0.651E+00  0.140E+00
   7.095  0.645E+00  0.131E+00
   7.105  0.641E+00  0.122E+00
   7.115  0.638E+00  0.113E+00
   7.125  0.637E+00  0.104E+00
   7.135  0.638E+00  0.945E-01
   7.145  0.639E+00  0.857E-01
   7.155  0.642E+00  0.772E-01
   7.165  0.644E+00  0.690E-01
   7.175  0.648E+00  0.614E-01
   7.185  0.651E+00  0.543E-01
   7.195  0.653E+00  0.478E-01
   7.205  0.655E+00  0.419E-01
   7.215  0.656E+00  0.366E-01
   7.225  0.656E+00  0.320E-01
   7.235  0.655E+00  0.281E-01
   7.245  0.652E+00  0.247E-01
   7.255  0.649E+00  0.220E-01
   7.265  0.645E+00  0.198E-01
   7.275  0.641E+00  0.182E-01
   7.285  0.636E+00  0.170E-01
   7.295  0.631E+00  0.163E-01
   7.305  0.626E+00  0.161E-01
   7.315  0.622E+00  0.162E-01
   7.325  0.619E+00  0.168E-01
   7.335  0.618E+00  0.177E-01
   7.345  0.617E+00  0.190E-01
   7.355  0.619E+00  0.208E-01
   7.365  0.623E+00  0.229E-01
   7.375  0.629E+00  0.256E-01
   7.385  0.638E+00  0.287E-01
   7.395  0.649E+00  0.324E-01
   7.405  0.664E+00  0.366E-01
   7.415  0.681E+00  0.415E-01
   7.425  0.701E+00  0.470E-01
   7.435  0.725E+00  0.531E-01
   7.445  0.751E+00  0.599E-01
   7.455  0.781E+00  0.674E-01
   7.465  0.813E+00  0.755E-01
   7.475  0.848E+00  0.841E-01
   7.485  0.885E+00  0.932E-01
   7.495  0.924E+00  0.103E+00
   7.505  0.964E+00  0.112E+00
   7.515  0.100E+01  0.122E+00
   7.525  0.104E+01  0.132E+00
   7.535  0.108E+01  0.141E+00
   7.545  0.112E+01  0.150E+00
   7.555  0.116E+01  0.159E+00
   7.565  0.119E+01  0.167E+00
   7.575  0.122E+01  0.174E+00
   7.585  0.124E+01  0.180E+00
   7.595  0.126E+01  0.185E+00
   7.605  0.128E+01  0.189E+00
   7.615  0.128E+01  0.192E+00
   7.625  0.129E+01  0.193E+00
   7.635  0.129E+01  0.193E+00
   7.645  0.128E+01  0.192E+00
   7.655  0.126E+01  0.190E+00
   7.665  0.125E+01  0.187E+00
   7.675  0.122E+01  0.182E+00
   7.685  0.120E+01  0.177E+00
   7.695  0.117E+01  0.171E+00
   7.705  0.114E+01  0.164E+00
   7.715  0.110E+01  0.156E+00
   7.725  0.107E+01  0.147E+00
   7.735  0.103E+01  0.138E+00
   7.745  0.998E+00  0.129E+00
   7.755  0.964E+00  0.120E+00
   7.765  0.930E+00  0.111E+00
   7.775  0.898E+00  0.101E+00
   7.785  0.868E+00  0.923E-01
   7.795  0.840E+00  0.836E-01
   7.805  0.816E+00  0.754E-01
   7.815  0.793E+00  0.677E-01
   7.825  0.774E+00  0.607E-01
   7.835  0.758E+00  0.544E-01
   7.845  0.744E+00  0.487E-01
   7.855  0.733E+00  0.439E-01
   7.865  0.725E+00  0.397E-01
   7.875  0.718E+00  0.364E-01
   7.885  0.713E+00  0.337E-01
   7.895  0.710E+00  0.317E-01
   7.905  0.709E+00  0.305E-01
   7.915  0.708E+00  0.299E-01
   7.925  0.708E+00  0.299E-01
   7.935  0.709E+00  0.305E-01
   7.945  0.711E+00  0.318E-01
   7.955  0.713E+00  0.336E-01
   7.965  0.715E+00  0.361E-01
   7.975  0.718E+00  0.392E-01
   7.985  0.721E+00  0.430E-01
   7.995  0.724E+00  0.474E-01
   8.005  0.728E+00  0.525E-01
   8.015  0.732E+00  0.583E-01
   8.025  0.735E+00  0.648E-01
   8.035  0.739E+00  0.719E-01
   8.045  0.742E+00  0.797E-01
   8.055  0.745E+00  0.880E-01
   8.065  0.748E+00  0.967E-01
   8.075  0.750E+00  0.106E+00
   8.085  0.752E+00  0.115E+00
   8.095  0.752E+00  0.124E+00
   8.105  0.752E+00  0.133E+00
   8.115  0.751E+00  0.142E+00
   8.125  0.749E+00  0.150E+00
   8.135  0.746E+00  0.158E+00
   8.145  0.743E+00  0.164E+00
   8.155  0.739E+00  0.169E+00
   8.165  0.734E+00  0.174E+00
   8.175  0.729E+00  0.176E+00
   8.185  0.723E+00  0.178E+00
   8.195  0.717E+00  0.178E+00
   8.205  0.710E+00  0.176E+00
   8.215  0.703E+00  0.173E+00
   8.225  0.695E+00  0.169E+00
   8.235  0.686E+00  0.163E+00
   8.245  0.676E+00  0.157E+00
   8.255  0.665E+00  0.149E+00
   8.265  0.652E+00  0.141E+00
   8.275  0.638E+00  0.132E+00
   8.285  0.622E+00  0.123E+00
   8.295  0.604E+00  0.114E+00
   8.305  0.584E+00  0.105E+00
   8.315  0.563E+00  0.965E-01
   8.325  0.540E+00  0.883E-01
   8.335  0.515E+00  0.806E-01
   8.345  0.490E+00  0.737E-01
   8.355  0.464E+00  0.676E-01
   8.365  0.439E+00  0.625E-01
   8.375  0.413E+00  0.584E-01
   8.385  0.388E+00  0.553E-01
   8.395  0.365E+00  0.533E-01
   8.405  0.343E+00  0.523E-01
   8.415  0.324E+00  0.523E-01
   8.425  0.307E+00  0.534E-01
   8.435  0.293E+00  0.554E-01
   8.445  0.281E+00  0.582E-01
   8.455  0.273E+00  0.618E-01
   8.465  0.267E+00  0.661E-01
   8.475  0.265E+00  0.708E-01
   8.485  0.264E+00  0.760E-01
   8.495  0.267E+00  0.814E-01
   8.505  0.271E+00  0.869E-01
   8.515  0.276E+00  0.923E-01
   8.525  0.283E+00  0.974E-01
   8.535  0.290E+00  0.102E+00
   8.545  0.297E+00  0.107E+00
   8.555  0.304E+00  0.110E+00
   8.565  0.310E+00  0.113E+00
   8.575  0.316E+00  0.115E+00
   8.585  0.319E+00  0.116E+00
   8.595  0.321E+00  0.117E+00
   8.605  0.321E+00  0.116E+00
   8.615  0.319E+00  0.115E+00
   8.625  0.316E+00  0.113E+00
   8.635  0.310E+00  0.110E+00
   8.645  0.303E+00  0.107E+00
   8.655  0.295E+00  0.104E+00
   8.665  0.285E+00  0.997E-01
   8.675  0.275E+00  0.959E-01
   8.685  0.264E+00  0.921E-01
   8.695  0.254E+00  0.884E-01
   8.705  0.243E+00  0.850E-01
   8.715  0.233E+00  0.820E-01
   8.725  0.224E+00  0.794E-01
   8.735  0.215E+00  0.772E-01
   8.745  0.208E+00  0.754E-01
   8.755  0.201E+00  0.739E-01
   8.765  0.195E+00  0.728E-01
   8.775  0.189E+00  0.719E-01
   8.785  0.185E+00  0.711E-01
   8.795  0.180E+00  0.704E-01
   8.805  0.176E+00  0.696E-01
   8.815  0.172E+00  0.686E-01
   8.825  0.167E+00  0.674E-01
   8.835  0.162E+00  0.660E-01
   8.845  0.157E+00  0.641E-01
   8.855  0.151E+00  0.619E-01
   8.865  0.144E+00  0.594E-01
   8.875  0.136E+00  0.565E-01
   8.885  0.128E+00  0.533E-01
   8.895  0.120E+00  0.498E-01
   8.905  0.111E+00  0.461E-01
   8.915  0.102E+00  0.423E-01
   8.925  0.925E-01  0.384E-01
   8.935  0.833E-01  0.345E-01
   8.945  0.743E-01  0.307E-01
   8.955  0.656E-01  0.271E-01
   8.965  0.573E-01  0.236E-01
   8.975  0.496E-01  0.204E-01
   8.985  0.425E-01  0.174E-01
   8.995  0.360E-01  0.147E-01
   9.005  0.302E-01  0.123E-01
   9.015  0.251E-01  0.102E-01
   9.025  0.206E-01  0.836E-02
   9.035  0.168E-01  0.678E-02
   9.045  0.135E-01  0.544E-02
   9.055  0.107E-01  0.432E-02
   9.065  0.847E-02  0.339E-02
   9.075  0.660E-02  0.264E-02
   9.085  0.509E-02  0.203E-02
   9.095  0.389E-02  0.154E-02
   9.105  0.294E-02  0.116E-02
   9.115  0.220E-02  0.867E-03
   9.125  0.163E-02  0.640E-03
   9.135  0.119E-02  0.467E-03
   9.145  0.863E-03  0.337E-03
   9.155  0.619E-03  0.241E-03
   9.165  0.439E-03  0.170E-03
   9.175  0.308E-03  0.119E-03
   9.185  0.214E-03  0.825E-04
   9.195  0.147E-03  0.566E-04
   9.205  0.100E-03  0.383E-04
   9.215  0.673E-04  0.257E-04
   9.225  0.448E-04  0.171E-04
   9.235  0.295E-04  0.112E-04
   9.245  0.193E-04  0.729E-05
   9.255  0.124E-04  0.469E-05
   9.265  0.794E-05  0.298E-05
