#  E (eV)   dos(E)     Int dos(E) EFermi =   -2.860 eV
 -21.236  0.0000E+00  0.0000E+00
 -21.226  0.3332E+00  0.1666E-02
 -21.216  0.2871E+00  0.5570E-02
 -21.206  0.3149E+00  0.8580E-02
 -21.196  0.3427E+00  0.1187E-01
 -21.186  0.3705E+00  0.1543E-01
 -21.176  0.3358E+00  0.1896E-01
 -21.166  0.3160E+00  0.2217E-01
 -21.156  0.3258E+00  0.2538E-01
 -21.146  0.3355E+00  0.2869E-01
 -21.136  0.3453E+00  0.3209E-01
 -21.126  0.3550E+00  0.3559E-01
 -21.116  0.3330E+00  0.3909E-01
 -21.106  0.3309E+00  0.4241E-01
 -21.096  0.3287E+00  0.4571E-01
 -21.086  0.3266E+00  0.4899E-01
 -21.076  0.3316E+00  0.5228E-01
 -21.066  0.3365E+00  0.5562E-01
 -21.056  0.3415E+00  0.5901E-01
 -21.046  0.3464E+00  0.6245E-01
 -21.036  0.3510E+00  0.6594E-01
 -21.026  0.3381E+00  0.6938E-01
 -21.016  0.3301E+00  0.7271E-01
 -21.006  0.3310E+00  0.7601E-01
 -20.996  0.3319E+00  0.7933E-01
 -20.986  0.3327E+00  0.8265E-01
 -20.976  0.3336E+00  0.8598E-01
 -20.966  0.3353E+00  0.8932E-01
 -20.956  0.3383E+00  0.9269E-01
 -20.946  0.3413E+00  0.9609E-01
 -20.936  0.3443E+00  0.9952E-01
 -20.926  0.3473E+00  0.1030E+00
 -20.916  0.3384E+00  0.1064E+00
 -20.906  0.3360E+00  0.1098E+00
 -20.896  0.3337E+00  0.1131E+00
 -20.886  0.3315E+00  0.1165E+00
 -20.876  0.3327E+00  0.1198E+00
 -20.866  0.3339E+00  0.1231E+00
 -20.856  0.3351E+00  0.1265E+00
 -20.846  0.3363E+00  0.1298E+00
 -20.836  0.3375E+00  0.1332E+00
 -20.826  0.3386E+00  0.1366E+00
 -20.816  0.3402E+00  0.1400E+00
 -20.806  0.3422E+00  0.1434E+00
 -20.796  0.3442E+00  0.1468E+00
 -20.786  0.3452E+00  0.1503E+00
 -20.776  0.3392E+00  0.1537E+00
 -20.766  0.3358E+00  0.1571E+00
 -20.756  0.3355E+00  0.1604E+00
 -20.746  0.3352E+00  0.1638E+00
 -20.736  0.3349E+00  0.1671E+00
 -20.726  0.3346E+00  0.1705E+00
 -20.716  0.3349E+00  0.1738E+00
 -20.706  0.3360E+00  0.1772E+00
 -20.696  0.3371E+00  0.1805E+00
 -20.686  0.3381E+00  0.1839E+00
 -20.676  0.3392E+00  0.1873E+00
 -20.666  0.3402E+00  0.1907E+00
 -20.656  0.3413E+00  0.1941E+00
 -20.646  0.3424E+00  0.1975E+00
 -20.636  0.3435E+00  0.2009E+00
 -20.626  0.3450E+00  0.2044E+00
 -20.616  0.3398E+00  0.2078E+00
 -20.606  0.3384E+00  0.2112E+00
 -20.596  0.3370E+00  0.2146E+00
 -20.586  0.3361E+00  0.2179E+00
 -20.576  0.3363E+00  0.2213E+00
 -20.566  0.3365E+00  0.2247E+00
 -20.556  0.3368E+00  0.2280E+00
 -20.546  0.3370E+00  0.2314E+00
 -20.536  0.3373E+00  0.2348E+00
 -20.526  0.3375E+00  0.2381E+00
 -20.516  0.3382E+00  0.2415E+00
 -20.506  0.3391E+00  0.2449E+00
 -20.496  0.3400E+00  0.2483E+00
 -20.486  0.3409E+00  0.2517E+00
 -20.476  0.3418E+00  0.2551E+00
 -20.466  0.3426E+00  0.2585E+00
 -20.456  0.3435E+00  0.2620E+00
 -20.446  0.3444E+00  0.2654E+00
 -20.436  0.3434E+00  0.2689E+00
 -20.426  0.3398E+00  0.2723E+00
 -20.416  0.3387E+00  0.2757E+00
 -20.406  0.3384E+00  0.2791E+00
 -20.396  0.3382E+00  0.2824E+00
 -20.386  0.3379E+00  0.2858E+00
 -20.376  0.3376E+00  0.2892E+00
 -20.366  0.3378E+00  0.2926E+00
 -20.356  0.3382E+00  0.2959E+00
 -20.346  0.3386E+00  0.2993E+00
 -20.336  0.3390E+00  0.3027E+00
 -20.326  0.3394E+00  0.3061E+00
 -20.316  0.3398E+00  0.3095E+00
 -20.306  0.3402E+00  0.3129E+00
 -20.296  0.3406E+00  0.3163E+00
 -20.286  0.3412E+00  0.3197E+00
 -20.276  0.3420E+00  0.3231E+00
 -20.266  0.3427E+00  0.3266E+00
 -20.256  0.3435E+00  0.3300E+00
 -20.246  0.3442E+00  0.3334E+00
 -20.236  0.3450E+00  0.3369E+00
 -20.226  0.3427E+00  0.3403E+00
 -20.216  0.3417E+00  0.3438E+00
 -20.206  0.3407E+00  0.3472E+00
 -20.196  0.3398E+00  0.3506E+00
 -20.186  0.3395E+00  0.3540E+00
 -20.176  0.3394E+00  0.3574E+00
 -20.166  0.3395E+00  0.3608E+00
 -20.156  0.3396E+00  0.3641E+00
 -20.146  0.3397E+00  0.3675E+00
 -20.136  0.3398E+00  0.3709E+00
 -20.126  0.3399E+00  0.3743E+00
 -20.116  0.3403E+00  0.3777E+00
 -20.106  0.3407E+00  0.3811E+00
 -20.096  0.3412E+00  0.3846E+00
 -20.086  0.3416E+00  0.3880E+00
 -20.076  0.3420E+00  0.3914E+00
 -20.066  0.3425E+00  0.3948E+00
 -20.056  0.3429E+00  0.3982E+00
 -20.046  0.3433E+00  0.4017E+00
 -20.036  0.3437E+00  0.4051E+00
 -20.026  0.3442E+00  0.4085E+00
 -20.016  0.3449E+00  0.4120E+00
 -20.006  0.3455E+00  0.4154E+00
 -19.996  0.3458E+00  0.4189E+00
 -19.986  0.3436E+00  0.4223E+00
 -19.976  0.3423E+00  0.4258E+00
 -19.966  0.3420E+00  0.4292E+00
 -19.956  0.3418E+00  0.4326E+00
 -19.946  0.3415E+00  0.4360E+00
 -19.936  0.3412E+00  0.4394E+00
 -19.926  0.3412E+00  0.4429E+00
 -19.916  0.3413E+00  0.4463E+00
 -19.906  0.3415E+00  0.4497E+00
 -19.896  0.3416E+00  0.4531E+00
 -19.886  0.3418E+00  0.4565E+00
 -19.876  0.3421E+00  0.4599E+00
 -19.866  0.3423E+00  0.4634E+00
 -19.856  0.3425E+00  0.4668E+00
 -19.846  0.3428E+00  0.4702E+00
 -19.836  0.3432E+00  0.4736E+00
 -19.826  0.3436E+00  0.4771E+00
 -19.816  0.3440E+00  0.4805E+00
 -19.806  0.3444E+00  0.4839E+00
 -19.796  0.3449E+00  0.4874E+00
 -19.786  0.3453E+00  0.4908E+00
 -19.776  0.3457E+00  0.4943E+00
 -19.766  0.3461E+00  0.4978E+00
 -19.756  0.3465E+00  0.5012E+00
 -19.746  0.3469E+00  0.5047E+00
 -19.736  0.3454E+00  0.5082E+00
 -19.726  0.3448E+00  0.5116E+00
 -19.716  0.3442E+00  0.5151E+00
 -19.706  0.3436E+00  0.5185E+00
 -19.696  0.3435E+00  0.5219E+00
 -19.686  0.3435E+00  0.5254E+00
 -19.676  0.3435E+00  0.5288E+00
 -19.666  0.3435E+00  0.5322E+00
 -19.656  0.3435E+00  0.5357E+00
 -19.646  0.3435E+00  0.5391E+00
 -19.636  0.3435E+00  0.5425E+00
 -19.626  0.3438E+00  0.5460E+00
 -19.616  0.3440E+00  0.5494E+00
 -19.606  0.3442E+00  0.5529E+00
 -19.596  0.3444E+00  0.5563E+00
 -19.586  0.3447E+00  0.5597E+00
 -19.576  0.3449E+00  0.5632E+00
 -19.566  0.3452E+00  0.5666E+00
 -19.556  0.3455E+00  0.5701E+00
 -19.546  0.3457E+00  0.5736E+00
 -19.536  0.3461E+00  0.5770E+00
 -19.526  0.3465E+00  0.5805E+00
 -19.516  0.3469E+00  0.5839E+00
 -19.506  0.3472E+00  0.5874E+00
 -19.496  0.3476E+00  0.5909E+00
 -19.486  0.3480E+00  0.5944E+00
 -19.476  0.3484E+00  0.5978E+00
 -19.466  0.3488E+00  0.6013E+00
 -19.456  0.3484E+00  0.6048E+00
 -19.446  0.3468E+00  0.6083E+00
 -19.436  0.3464E+00  0.6118E+00
 -19.426  0.3461E+00  0.6152E+00
 -19.416  0.3459E+00  0.6187E+00
 -19.406  0.3457E+00  0.6221E+00
 -19.396  0.3456E+00  0.6256E+00
 -19.386  0.3457E+00  0.6291E+00
 -19.376  0.3458E+00  0.6325E+00
 -19.366  0.3460E+00  0.6360E+00
 -19.356  0.3461E+00  0.6394E+00
 -19.346  0.3462E+00  0.6429E+00
 -19.336  0.3463E+00  0.6464E+00
 -19.326  0.3465E+00  0.6498E+00
 -19.316  0.3466E+00  0.6533E+00
 -19.306  0.3468E+00  0.6568E+00
 -19.296  0.3471E+00  0.6602E+00
 -19.286  0.3474E+00  0.6637E+00
 -19.276  0.3476E+00  0.6672E+00
 -19.266  0.3479E+00  0.6706E+00
 -19.256  0.3481E+00  0.6741E+00
 -19.246  0.3484E+00  0.6776E+00
 -19.236  0.3487E+00  0.6811E+00
 -19.226  0.3490E+00  0.6846E+00
 -19.216  0.3493E+00  0.6881E+00
 -19.206  0.3495E+00  0.6916E+00
 -19.196  0.3499E+00  0.6951E+00
 -19.186  0.3502E+00  0.6986E+00
 -19.176  0.3506E+00  0.7021E+00
 -19.166  0.3510E+00  0.7056E+00
 -19.156  0.3513E+00  0.7091E+00
 -19.146  0.3498E+00  0.7126E+00
 -19.136  0.3494E+00  0.7161E+00
 -19.126  0.3489E+00  0.7196E+00
 -19.116  0.3488E+00  0.7231E+00
 -19.106  0.3488E+00  0.7266E+00
 -19.096  0.3488E+00  0.7300E+00
 -19.086  0.3487E+00  0.7335E+00
 -19.076  0.3487E+00  0.7370E+00
 -19.066  0.3487E+00  0.7405E+00
 -19.056  0.3488E+00  0.7440E+00
 -19.046  0.3490E+00  0.7475E+00
 -19.036  0.3491E+00  0.7510E+00
 -19.026  0.3493E+00  0.7545E+00
 -19.016  0.3495E+00  0.7580E+00
 -19.006  0.3497E+00  0.7615E+00
 -18.996  0.3499E+00  0.7650E+00
 -18.986  0.3501E+00  0.7685E+00
 -18.976  0.3503E+00  0.7720E+00
 -18.966  0.3505E+00  0.7755E+00
 -18.956  0.3507E+00  0.7790E+00
 -18.946  0.3510E+00  0.7825E+00
 -18.936  0.3513E+00  0.7860E+00
 -18.926  0.3516E+00  0.7895E+00
 -18.916  0.3518E+00  0.7930E+00
 -18.906  0.3521E+00  0.7965E+00
 -18.896  0.3524E+00  0.8001E+00
 -18.886  0.3526E+00  0.8036E+00
 -18.876  0.3529E+00  0.8071E+00
 -18.866  0.3532E+00  0.8106E+00
 -18.856  0.3535E+00  0.8142E+00
 -18.846  0.3538E+00  0.8177E+00
 -18.836  0.3541E+00  0.8213E+00
 -18.826  0.3533E+00  0.8248E+00
 -18.816  0.3526E+00  0.8283E+00
 -18.806  0.3525E+00  0.8318E+00
 -18.796  0.3524E+00  0.8354E+00
 -18.786  0.3524E+00  0.8389E+00
 -18.776  0.3523E+00  0.8424E+00
 -18.766  0.3523E+00  0.8459E+00
 -18.756  0.3524E+00  0.8495E+00
 -18.746  0.3525E+00  0.8530E+00
 -18.736  0.3526E+00  0.8565E+00
 -18.726  0.3527E+00  0.8600E+00
 -18.716  0.3528E+00  0.8636E+00
 -18.706  0.3529E+00  0.8671E+00
 -18.696  0.3531E+00  0.8706E+00
 -18.686  0.3532E+00  0.8742E+00
 -18.676  0.3534E+00  0.8777E+00
 -18.666  0.3537E+00  0.8812E+00
 -18.656  0.3539E+00  0.8848E+00
 -18.646  0.3541E+00  0.8883E+00
 -18.636  0.3544E+00  0.8918E+00
 -18.626  0.3546E+00  0.8954E+00
 -18.616  0.3548E+00  0.8989E+00
 -18.606  0.3551E+00  0.9025E+00
 -18.596  0.3553E+00  0.9060E+00
 -18.586  0.3555E+00  0.9096E+00
 -18.576  0.3558E+00  0.9132E+00
 -18.566  0.3561E+00  0.9167E+00
 -18.556  0.3564E+00  0.9203E+00
 -18.546  0.3567E+00  0.9238E+00
 -18.536  0.3570E+00  0.9274E+00
 -18.526  0.3572E+00  0.9310E+00
 -18.516  0.3575E+00  0.9346E+00
 -18.506  0.3578E+00  0.9381E+00
 -18.496  0.3581E+00  0.9417E+00
 -18.486  0.3575E+00  0.9453E+00
 -18.476  0.3573E+00  0.9489E+00
 -18.466  0.3571E+00  0.9524E+00
 -18.456  0.3569E+00  0.9560E+00
 -18.446  0.3569E+00  0.9596E+00
 -18.436  0.3569E+00  0.9631E+00
 -18.426  0.3570E+00  0.9667E+00
 -18.416  0.3571E+00  0.9703E+00
 -18.406  0.3572E+00  0.9739E+00
 -18.396  0.3573E+00  0.9774E+00
 -18.386  0.3575E+00  0.9810E+00
 -18.376  0.3577E+00  0.9846E+00
 -18.366  0.3579E+00  0.9882E+00
 -18.356  0.3580E+00  0.9917E+00
 -18.346  0.3582E+00  0.9953E+00
 -18.336  0.3584E+00  0.9989E+00
 -18.326  0.3586E+00  0.1002E+01
 -18.316  0.3588E+00  0.1006E+01
 -18.306  0.3590E+00  0.1010E+01
 -18.296  0.3592E+00  0.1013E+01
 -18.286  0.3595E+00  0.1017E+01
 -18.276  0.3597E+00  0.1020E+01
 -18.266  0.3600E+00  0.1024E+01
 -18.256  0.3603E+00  0.1028E+01
 -18.246  0.3605E+00  0.1031E+01
 -18.236  0.3608E+00  0.1035E+01
 -18.226  0.3611E+00  0.1038E+01
 -18.216  0.3614E+00  0.1042E+01
 -18.206  0.3617E+00  0.1046E+01
 -18.196  0.3619E+00  0.1049E+01
 -18.186  0.3622E+00  0.1053E+01
 -18.176  0.3625E+00  0.1057E+01
 -18.166  0.3628E+00  0.1060E+01
 -18.156  0.3632E+00  0.1064E+01
 -18.146  0.3635E+00  0.1067E+01
 -18.136  0.3638E+00  0.1071E+01
 -18.126  0.3641E+00  0.1075E+01
 -18.116  0.3635E+00  0.1078E+01
 -18.106  0.3633E+00  0.1082E+01
 -18.096  0.3633E+00  0.1086E+01
 -18.086  0.3634E+00  0.1089E+01
 -18.076  0.3634E+00  0.1093E+01
 -18.066  0.3635E+00  0.1097E+01
 -18.056  0.3637E+00  0.1100E+01
 -18.046  0.3638E+00  0.1104E+01
 -18.036  0.3640E+00  0.1107E+01
 -18.026  0.3642E+00  0.1111E+01
 -18.016  0.3644E+00  0.1115E+01
 -18.006  0.3647E+00  0.1118E+01
 -17.996  0.3649E+00  0.1122E+01
 -17.986  0.3651E+00  0.1126E+01
 -17.976  0.3654E+00  0.1129E+01
 -17.966  0.3657E+00  0.1133E+01
 -17.956  0.3660E+00  0.1137E+01
 -17.946  0.3663E+00  0.1140E+01
 -17.936  0.3666E+00  0.1144E+01
 -17.926  0.3669E+00  0.1148E+01
 -17.916  0.3671E+00  0.1151E+01
 -17.906  0.3674E+00  0.1155E+01
 -17.896  0.3677E+00  0.1159E+01
 -17.886  0.3680E+00  0.1162E+01
 -17.876  0.3683E+00  0.1166E+01
 -17.866  0.3687E+00  0.1170E+01
 -17.856  0.3690E+00  0.1173E+01
 -17.846  0.3693E+00  0.1177E+01
 -17.836  0.3697E+00  0.1181E+01
 -17.826  0.3700E+00  0.1184E+01
 -17.816  0.3704E+00  0.1188E+01
 -17.806  0.3708E+00  0.1192E+01
 -17.796  0.3712E+00  0.1196E+01
 -17.786  0.3715E+00  0.1199E+01
 -17.776  0.3719E+00  0.1203E+01
 -17.766  0.3723E+00  0.1207E+01
 -17.756  0.3726E+00  0.1210E+01
 -17.746  0.3730E+00  0.1214E+01
 -17.736  0.3728E+00  0.1218E+01
 -17.726  0.3729E+00  0.1222E+01
 -17.716  0.3730E+00  0.1225E+01
 -17.706  0.3732E+00  0.1229E+01
 -17.696  0.3734E+00  0.1233E+01
 -17.686  0.3737E+00  0.1237E+01
 -17.676  0.3740E+00  0.1240E+01
 -17.666  0.3743E+00  0.1244E+01
 -17.656  0.3745E+00  0.1248E+01
 -17.646  0.3749E+00  0.1252E+01
 -17.636  0.3752E+00  0.1255E+01
 -17.626  0.3756E+00  0.1259E+01
 -17.616  0.3760E+00  0.1263E+01
 -17.606  0.3763E+00  0.1267E+01
 -17.596  0.3767E+00  0.1270E+01
 -17.586  0.3771E+00  0.1274E+01
 -17.576  0.3775E+00  0.1278E+01
 -17.566  0.3780E+00  0.1282E+01
 -17.556  0.3785E+00  0.1285E+01
 -17.546  0.3789E+00  0.1289E+01
 -17.536  0.3794E+00  0.1293E+01
 -17.526  0.3799E+00  0.1297E+01
 -17.516  0.3804E+00  0.1301E+01
 -17.506  0.3809E+00  0.1304E+01
 -17.496  0.3814E+00  0.1308E+01
 -17.486  0.3819E+00  0.1312E+01
 -17.476  0.3823E+00  0.1316E+01
 -17.466  0.3828E+00  0.1320E+01
 -17.456  0.3833E+00  0.1324E+01
 -17.446  0.3838E+00  0.1327E+01
 -17.436  0.3844E+00  0.1331E+01
 -17.426  0.3849E+00  0.1335E+01
 -17.416  0.3855E+00  0.1339E+01
 -17.406  0.3860E+00  0.1343E+01
 -17.396  0.3866E+00  0.1347E+01
 -17.386  0.3873E+00  0.1350E+01
 -17.376  0.3879E+00  0.1354E+01
 -17.366  0.3886E+00  0.1358E+01
 -17.356  0.3892E+00  0.1362E+01
 -17.346  0.3898E+00  0.1366E+01
 -17.336  0.3900E+00  0.1370E+01
 -17.326  0.3905E+00  0.1374E+01
 -17.316  0.3910E+00  0.1378E+01
 -17.306  0.3916E+00  0.1382E+01
 -17.296  0.3923E+00  0.1386E+01
 -17.286  0.3930E+00  0.1389E+01
 -17.276  0.3937E+00  0.1393E+01
 -17.266  0.3944E+00  0.1397E+01
 -17.256  0.3952E+00  0.1401E+01
 -17.246  0.3959E+00  0.1405E+01
 -17.236  0.3966E+00  0.1409E+01
 -17.226  0.3974E+00  0.1413E+01
 -17.216  0.3982E+00  0.1417E+01
 -17.206  0.3990E+00  0.1421E+01
 -17.196  0.3998E+00  0.1425E+01
 -17.186  0.4007E+00  0.1429E+01
 -17.176  0.4017E+00  0.1433E+01
 -17.166  0.4026E+00  0.1437E+01
 -17.156  0.4035E+00  0.1441E+01
 -17.146  0.4046E+00  0.1445E+01
 -17.136  0.4057E+00  0.1449E+01
 -17.126  0.4070E+00  0.1453E+01
 -17.116  0.4082E+00  0.1457E+01
 -17.106  0.4095E+00  0.1462E+01
 -17.096  0.4107E+00  0.1466E+01
 -17.086  0.4120E+00  0.1470E+01
 -17.076  0.4133E+00  0.1474E+01
 -17.066  0.4145E+00  0.1478E+01
 -17.056  0.4158E+00  0.1482E+01
 -17.046  0.4171E+00  0.1486E+01
 -17.036  0.4183E+00  0.1491E+01
 -17.026  0.4196E+00  0.1495E+01
 -17.016  0.4209E+00  0.1499E+01
 -17.006  0.4225E+00  0.1503E+01
 -16.996  0.4240E+00  0.1507E+01
 -16.986  0.4255E+00  0.1512E+01
 -16.976  0.4275E+00  0.1516E+01
 -16.966  0.4298E+00  0.1520E+01
 -16.956  0.4321E+00  0.1524E+01
 -16.946  0.4343E+00  0.1529E+01
 -16.936  0.4365E+00  0.1533E+01
 -16.926  0.4388E+00  0.1538E+01
 -16.916  0.4411E+00  0.1542E+01
 -16.906  0.4434E+00  0.1546E+01
 -16.896  0.4458E+00  0.1551E+01
 -16.886  0.4488E+00  0.1555E+01
 -16.876  0.4520E+00  0.1560E+01
 -16.866  0.4552E+00  0.1564E+01
 -16.856  0.4585E+00  0.1569E+01
 -16.846  0.4619E+00  0.1573E+01
 -16.836  0.4652E+00  0.1578E+01
 -16.826  0.4686E+00  0.1583E+01
 -16.816  0.4719E+00  0.1587E+01
 -16.806  0.4767E+00  0.1592E+01
 -16.796  0.4823E+00  0.1597E+01
 -16.786  0.4881E+00  0.1602E+01
 -16.776  0.4941E+00  0.1607E+01
 -16.766  0.5007E+00  0.1612E+01
 -16.756  0.5116E+00  0.1617E+01
 -16.746  0.5225E+00  0.1622E+01
 -16.736  0.5334E+00  0.1627E+01
 -16.726  0.5443E+00  0.1633E+01
 -16.716  0.5553E+00  0.1638E+01
 -16.706  0.5670E+00  0.1644E+01
 -16.696  0.5790E+00  0.1650E+01
 -16.686  0.5911E+00  0.1655E+01
 -16.676  0.6031E+00  0.1661E+01
 -16.666  0.9408E+00  0.1668E+01
 -16.656  0.8371E+00  0.1677E+01
 -16.646  0.7334E+00  0.1685E+01
 -16.636  0.6297E+00  0.1691E+01
 -16.626  0.5456E+00  0.1697E+01
 -16.616  0.5332E+00  0.1703E+01
 -16.606  0.5209E+00  0.1708E+01
 -16.596  0.5085E+00  0.1713E+01
 -16.586  0.4962E+00  0.1718E+01
 -16.576  0.4677E+00  0.1727E+01
 -16.566  0.4571E+00  0.1732E+01
 -16.556  0.4466E+00  0.1737E+01
 -16.546  0.4360E+00  0.1741E+01
 -16.536  0.4255E+00  0.1745E+01
 -16.526  0.4149E+00  0.1749E+01
 -16.516  0.4048E+00  0.1754E+01
 -16.506  0.3949E+00  0.1758E+01
 -16.496  0.3848E+00  0.1761E+01
 -16.486  0.3749E+00  0.1765E+01
 -16.476  0.3654E+00  0.1769E+01
 -16.466  0.3558E+00  0.1773E+01
 -16.456  0.3463E+00  0.1776E+01
 -16.446  0.3465E+00  0.1779E+01
 -16.436  0.3700E+00  0.1783E+01
 -16.426  0.3936E+00  0.1787E+01
 -16.416  0.4172E+00  0.1791E+01
 -16.406  0.4579E+00  0.1795E+01
 -16.396  0.3582E+00  0.1800E+01
 -16.386  0.3518E+00  0.1803E+01
 -16.376  0.3454E+00  0.1807E+01
 -16.366  0.3390E+00  0.1810E+01
 -16.356  0.3326E+00  0.1813E+01
 -16.346  0.3262E+00  0.1817E+01
 -16.336  0.3198E+00  0.1820E+01
 -16.326  0.3134E+00  0.1823E+01
 -16.316  0.3070E+00  0.1826E+01
 -16.306  0.3006E+00  0.1829E+01
 -16.296  0.2942E+00  0.1832E+01
 -16.286  0.2878E+00  0.1835E+01
 -16.276  0.2814E+00  0.1838E+01
 -16.266  0.2750E+00  0.1841E+01
 -16.256  0.2686E+00  0.1843E+01
 -16.246  0.2622E+00  0.1846E+01
 -16.236  0.2558E+00  0.1849E+01
 -16.226  0.2494E+00  0.1851E+01
 -16.216  0.2517E+00  0.1854E+01
 -16.206  0.2540E+00  0.1856E+01
 -16.196  0.2564E+00  0.1859E+01
 -16.186  0.2588E+00  0.1861E+01
 -16.176  0.2612E+00  0.1864E+01
 -16.166  0.2636E+00  0.1867E+01
 -16.156  0.2659E+00  0.1869E+01
 -16.146  0.2683E+00  0.1872E+01
 -16.136  0.2707E+00  0.1875E+01
 -16.126  0.2194E+00  0.1877E+01
 -16.116  0.2271E+00  0.1879E+01
 -16.106  0.2362E+00  0.1882E+01
 -16.096  0.2468E+00  0.1884E+01
 -16.086  0.2425E+00  0.1886E+01
 -16.076  0.2382E+00  0.1889E+01
 -16.066  0.2339E+00  0.1891E+01
 -16.056  0.2296E+00  0.1894E+01
 -16.046  0.2254E+00  0.1896E+01
 -16.036  0.2211E+00  0.1898E+01
 -16.026  0.2168E+00  0.1900E+01
 -16.016  0.2125E+00  0.1902E+01
 -16.006  0.2082E+00  0.1904E+01
 -15.996  0.2039E+00  0.1907E+01
 -15.986  0.1997E+00  0.1909E+01
 -15.976  0.1954E+00  0.1911E+01
 -15.966  0.1911E+00  0.1912E+01
 -15.956  0.1868E+00  0.1914E+01
 -15.946  0.1825E+00  0.1916E+01
 -15.936  0.1782E+00  0.1918E+01
 -15.926  0.1740E+00  0.1920E+01
 -15.916  0.1697E+00  0.1921E+01
 -15.906  0.1688E+00  0.1923E+01
 -15.896  0.1688E+00  0.1925E+01
 -15.886  0.1688E+00  0.1927E+01
 -15.876  0.1688E+00  0.1928E+01
 -15.866  0.1688E+00  0.1930E+01
 -15.856  0.1687E+00  0.1932E+01
 -15.846  0.1687E+00  0.1933E+01
 -15.836  0.1687E+00  0.1935E+01
 -15.826  0.1687E+00  0.1937E+01
 -15.816  0.1687E+00  0.1938E+01
 -15.806  0.1686E+00  0.1940E+01
 -15.796  0.1686E+00  0.1942E+01
 -15.786  0.1686E+00  0.1943E+01
 -15.776  0.1348E+00  0.1945E+01
 -15.766  0.1364E+00  0.1946E+01
 -15.756  0.1380E+00  0.1948E+01
 -15.746  0.1395E+00  0.1949E+01
 -15.736  0.1411E+00  0.1950E+01
 -15.726  0.1427E+00  0.1952E+01
 -15.716  0.1436E+00  0.1953E+01
 -15.706  0.1439E+00  0.1955E+01
 -15.696  0.1413E+00  0.1956E+01
 -15.686  0.1384E+00  0.1958E+01
 -15.676  0.1355E+00  0.1959E+01
 -15.666  0.1326E+00  0.1960E+01
 -15.656  0.1296E+00  0.1962E+01
 -15.646  0.1267E+00  0.1963E+01
 -15.636  0.1238E+00  0.1964E+01
 -15.626  0.1209E+00  0.1965E+01
 -15.616  0.1180E+00  0.1967E+01
 -15.606  0.1151E+00  0.1968E+01
 -15.596  0.1122E+00  0.1969E+01
 -15.586  0.1093E+00  0.1970E+01
 -15.576  0.1064E+00  0.1971E+01
 -15.566  0.1035E+00  0.1972E+01
 -15.556  0.1005E+00  0.1973E+01
 -15.546  0.9763E-01  0.1974E+01
 -15.536  0.9472E-01  0.1975E+01
 -15.526  0.9181E-01  0.1976E+01
 -15.516  0.8890E-01  0.1977E+01
 -15.506  0.8823E-01  0.1978E+01
 -15.496  0.8803E-01  0.1979E+01
 -15.486  0.8783E-01  0.1980E+01
 -15.476  0.8763E-01  0.1980E+01
 -15.466  0.8743E-01  0.1981E+01
 -15.456  0.8723E-01  0.1982E+01
 -15.446  0.8703E-01  0.1983E+01
 -15.436  0.8683E-01  0.1984E+01
 -15.426  0.8663E-01  0.1985E+01
 -15.416  0.8643E-01  0.1986E+01
 -15.406  0.8623E-01  0.1986E+01
 -15.396  0.8603E-01  0.1987E+01
 -15.386  0.8583E-01  0.1988E+01
 -15.376  0.8563E-01  0.1989E+01
 -15.366  0.8543E-01  0.1990E+01
 -15.356  0.5620E-01  0.1991E+01
 -15.346  0.5449E-01  0.1991E+01
 -15.336  0.5278E-01  0.1992E+01
 -15.326  0.5107E-01  0.1992E+01
 -15.316  0.4936E-01  0.1993E+01
 -15.306  0.4765E-01  0.1993E+01
 -15.296  0.4594E-01  0.1994E+01
 -15.286  0.4423E-01  0.1994E+01
 -15.276  0.4252E-01  0.1995E+01
 -15.266  0.4081E-01  0.1995E+01
 -15.256  0.3909E-01  0.1996E+01
 -15.246  0.3738E-01  0.1996E+01
 -15.236  0.3567E-01  0.1996E+01
 -15.226  0.3396E-01  0.1997E+01
 -15.216  0.3225E-01  0.1997E+01
 -15.206  0.5700E-01  0.1997E+01
 -15.196  0.8959E-01  0.1998E+01
 -15.186  0.1222E+00  0.1999E+01
 -15.176  0.1719E+00  0.2001E+01
 -15.166  0.3559E+00  0.2003E+01
 -15.156  0.5398E+00  0.2008E+01
 -15.146  0.2515E+00  0.2013E+01
 -15.136  0.2627E+00  0.2016E+01
 -15.126  0.2739E+00  0.2019E+01
 -15.116  0.2851E+00  0.2021E+01
 -15.106  0.2963E+00  0.2024E+01
 -15.096  0.3075E+00  0.2027E+01
 -15.086  0.3187E+00  0.2031E+01
 -15.076  0.3299E+00  0.2034E+01
 -15.066  0.3247E+00  0.2041E+01
 -15.056  0.3252E+00  0.2045E+01
 -15.046  0.3257E+00  0.2048E+01
 -15.036  0.3262E+00  0.2051E+01
 -15.026  0.3273E+00  0.2055E+01
 -15.016  0.3319E+00  0.2058E+01
 -15.006  0.3364E+00  0.2061E+01
 -14.996  0.3428E+00  0.2065E+01
 -14.986  0.3495E+00  0.2068E+01
 -14.976  0.3562E+00  0.2072E+01
 -14.966  0.3638E+00  0.2075E+01
 -14.956  0.3752E+00  0.2079E+01
 -14.946  0.3865E+00  0.2083E+01
 -14.936  0.6158E+00  0.2088E+01
 -14.926  0.5119E+00  0.2093E+01
 -14.916  0.4080E+00  0.2098E+01
 -14.906  0.3945E+00  0.2102E+01
 -14.896  0.3980E+00  0.2106E+01
 -14.886  0.4015E+00  0.2110E+01
 -14.876  0.4050E+00  0.2114E+01
 -14.866  0.4085E+00  0.2118E+01
 -14.856  0.4165E+00  0.2122E+01
 -14.846  0.4256E+00  0.2126E+01
 -14.836  0.4347E+00  0.2131E+01
 -14.826  0.4438E+00  0.2135E+01
 -14.816  0.4529E+00  0.2140E+01
 -14.806  0.4619E+00  0.2144E+01
 -14.796  0.4710E+00  0.2149E+01
 -14.786  0.4801E+00  0.2154E+01
 -14.776  0.4897E+00  0.2158E+01
 -14.766  0.7634E+00  0.2165E+01
 -14.756  0.5776E+00  0.2172E+01
 -14.746  0.7341E+00  0.2178E+01
 -14.736  0.6866E+00  0.2185E+01
 -14.726  0.6391E+00  0.2191E+01
 -14.716  0.5915E+00  0.2198E+01
 -14.706  0.6078E+00  0.2203E+01
 -14.696  0.6540E+00  0.2210E+01
 -14.686  0.7002E+00  0.2216E+01
 -14.676  0.7464E+00  0.2224E+01
 -14.666  0.7926E+00  0.2231E+01
 -14.656  0.8388E+00  0.2240E+01
 -14.646  0.6501E+00  0.2248E+01
 -14.636  0.6371E+00  0.2254E+01
 -14.626  0.6240E+00  0.2261E+01
 -14.616  0.6110E+00  0.2267E+01
 -14.606  0.5980E+00  0.2273E+01
 -14.596  0.5850E+00  0.2279E+01
 -14.586  0.5720E+00  0.2285E+01
 -14.576  0.5595E+00  0.2290E+01
 -14.566  0.5472E+00  0.2296E+01
 -14.556  0.5350E+00  0.2301E+01
 -14.546  0.5246E+00  0.2306E+01
 -14.536  0.5166E+00  0.2312E+01
 -14.526  0.5087E+00  0.2317E+01
 -14.516  0.5008E+00  0.2322E+01
 -14.506  0.4951E+00  0.2327E+01
 -14.496  0.4895E+00  0.2332E+01
 -14.486  0.4839E+00  0.2337E+01
 -14.476  0.4784E+00  0.2341E+01
 -14.466  0.4728E+00  0.2346E+01
 -14.456  0.4672E+00  0.2351E+01
 -14.446  0.4637E+00  0.2356E+01
 -14.436  0.4604E+00  0.2360E+01
 -14.426  0.4571E+00  0.2365E+01
 -14.416  0.4542E+00  0.2369E+01
 -14.406  0.4516E+00  0.2374E+01
 -14.396  0.4492E+00  0.2378E+01
 -14.386  0.4468E+00  0.2383E+01
 -14.376  0.4443E+00  0.2387E+01
 -14.366  0.4419E+00  0.2392E+01
 -14.356  0.4395E+00  0.2396E+01
 -14.346  0.4370E+00  0.2401E+01
 -14.336  0.4346E+00  0.2405E+01
 -14.326  0.4322E+00  0.2409E+01
 -14.316  0.4298E+00  0.2414E+01
 -14.306  0.4275E+00  0.2418E+01
 -14.296  0.4253E+00  0.2422E+01
 -14.286  0.4230E+00  0.2426E+01
 -14.276  0.4208E+00  0.2431E+01
 -14.266  0.4186E+00  0.2435E+01
 -14.256  0.4165E+00  0.2439E+01
 -14.246  0.4145E+00  0.2443E+01
 -14.236  0.4125E+00  0.2447E+01
 -14.226  0.4105E+00  0.2451E+01
 -14.216  0.4086E+00  0.2455E+01
 -14.206  0.4066E+00  0.2459E+01
 -14.196  0.4046E+00  0.2464E+01
 -14.186  0.4027E+00  0.2468E+01
 -14.176  0.4008E+00  0.2472E+01
 -14.166  0.3988E+00  0.2476E+01
 -14.156  0.3916E+00  0.2480E+01
 -14.146  0.3904E+00  0.2483E+01
 -14.136  0.3893E+00  0.2487E+01
 -14.126  0.3882E+00  0.2491E+01
 -14.116  0.3871E+00  0.2495E+01
 -14.106  0.3859E+00  0.2499E+01
 -14.096  0.3848E+00  0.2503E+01
 -14.086  0.3837E+00  0.2507E+01
 -14.076  0.3826E+00  0.2511E+01
 -14.066  0.3815E+00  0.2514E+01
 -14.056  0.3805E+00  0.2518E+01
 -14.046  0.3794E+00  0.2522E+01
 -14.036  0.3784E+00  0.2526E+01
 -14.026  0.3773E+00  0.2530E+01
 -14.016  0.3763E+00  0.2533E+01
 -14.006  0.3752E+00  0.2537E+01
 -13.996  0.3741E+00  0.2541E+01
 -13.986  0.3731E+00  0.2545E+01
 -13.976  0.3720E+00  0.2548E+01
 -13.966  0.3710E+00  0.2552E+01
 -13.956  0.3700E+00  0.2556E+01
 -13.946  0.3689E+00  0.2559E+01
 -13.936  0.3679E+00  0.2563E+01
 -13.926  0.3669E+00  0.2567E+01
 -13.916  0.3659E+00  0.2570E+01
 -13.906  0.3648E+00  0.2574E+01
 -13.896  0.3638E+00  0.2578E+01
 -13.886  0.3622E+00  0.2581E+01
 -13.876  0.3604E+00  0.2585E+01
 -13.866  0.3587E+00  0.2589E+01
 -13.856  0.3569E+00  0.2592E+01
 -13.846  0.3552E+00  0.2596E+01
 -13.836  0.3535E+00  0.2599E+01
 -13.826  0.3518E+00  0.2603E+01
 -13.816  0.3501E+00  0.2606E+01
 -13.806  0.3484E+00  0.2610E+01
 -13.796  0.3470E+00  0.2613E+01
 -13.786  0.3464E+00  0.2617E+01
 -13.776  0.3458E+00  0.2620E+01
 -13.766  0.3452E+00  0.2624E+01
 -13.756  0.3445E+00  0.2627E+01
 -13.746  0.3439E+00  0.2630E+01
 -13.736  0.3433E+00  0.2634E+01
 -13.726  0.3427E+00  0.2637E+01
 -13.716  0.3420E+00  0.2641E+01
 -13.706  0.3414E+00  0.2644E+01
 -13.696  0.3408E+00  0.2648E+01
 -13.686  0.3401E+00  0.2651E+01
 -13.676  0.3395E+00  0.2654E+01
 -13.666  0.3389E+00  0.2658E+01
 -13.656  0.3382E+00  0.2661E+01
 -13.646  0.3375E+00  0.2665E+01
 -13.636  0.3366E+00  0.2668E+01
 -13.626  0.3357E+00  0.2671E+01
 -13.616  0.3349E+00  0.2675E+01
 -13.606  0.3340E+00  0.2678E+01
 -13.596  0.3332E+00  0.2681E+01
 -13.586  0.3323E+00  0.2685E+01
 -13.576  0.3315E+00  0.2688E+01
 -13.566  0.3306E+00  0.2691E+01
 -13.556  0.3298E+00  0.2695E+01
 -13.546  0.3289E+00  0.2698E+01
 -13.536  0.3281E+00  0.2701E+01
 -13.526  0.3272E+00  0.2704E+01
 -13.516  0.3264E+00  0.2708E+01
 -13.506  0.3255E+00  0.2711E+01
 -13.496  0.3246E+00  0.2714E+01
 -13.486  0.3238E+00  0.2717E+01
 -13.476  0.3229E+00  0.2721E+01
 -13.466  0.3172E+00  0.2724E+01
 -13.456  0.3167E+00  0.2727E+01
 -13.446  0.3163E+00  0.2730E+01
 -13.436  0.3159E+00  0.2733E+01
 -13.426  0.3155E+00  0.2737E+01
 -13.416  0.3151E+00  0.2740E+01
 -13.406  0.3145E+00  0.2743E+01
 -13.396  0.3140E+00  0.2746E+01
 -13.386  0.3135E+00  0.2749E+01
 -13.376  0.3129E+00  0.2752E+01
 -13.366  0.3124E+00  0.2755E+01
 -13.356  0.3119E+00  0.2759E+01
 -13.346  0.3114E+00  0.2762E+01
 -13.336  0.3108E+00  0.2765E+01
 -13.326  0.3103E+00  0.2768E+01
 -13.316  0.3098E+00  0.2771E+01
 -13.306  0.3093E+00  0.2774E+01
 -13.296  0.3087E+00  0.2777E+01
 -13.286  0.3082E+00  0.2780E+01
 -13.276  0.3077E+00  0.2783E+01
 -13.266  0.3072E+00  0.2786E+01
 -13.256  0.3066E+00  0.2789E+01
 -13.246  0.3061E+00  0.2793E+01
 -13.236  0.3056E+00  0.2796E+01
 -13.226  0.3050E+00  0.2799E+01
 -13.216  0.3045E+00  0.2802E+01
 -13.206  0.3040E+00  0.2805E+01
 -13.196  0.3035E+00  0.2808E+01
 -13.186  0.3029E+00  0.2811E+01
 -13.176  0.3024E+00  0.2814E+01
 -13.166  0.3018E+00  0.2817E+01
 -13.156  0.3007E+00  0.2820E+01
 -13.146  0.2995E+00  0.2823E+01
 -13.136  0.2983E+00  0.2826E+01
 -13.126  0.2971E+00  0.2829E+01
 -13.116  0.2959E+00  0.2832E+01
 -13.106  0.2947E+00  0.2835E+01
 -13.096  0.2935E+00  0.2838E+01
 -13.086  0.2923E+00  0.2841E+01
 -13.076  0.2911E+00  0.2844E+01
 -13.066  0.2899E+00  0.2846E+01
 -13.056  0.2894E+00  0.2849E+01
 -13.046  0.2890E+00  0.2852E+01
 -13.036  0.2887E+00  0.2855E+01
 -13.026  0.2883E+00  0.2858E+01
 -13.016  0.2880E+00  0.2861E+01
 -13.006  0.2876E+00  0.2864E+01
 -12.996  0.2872E+00  0.2867E+01
 -12.986  0.2869E+00  0.2869E+01
 -12.976  0.2865E+00  0.2872E+01
 -12.966  0.2862E+00  0.2875E+01
 -12.956  0.2858E+00  0.2878E+01
 -12.946  0.2854E+00  0.2881E+01
 -12.936  0.2851E+00  0.2884E+01
 -12.926  0.2847E+00  0.2887E+01
 -12.916  0.2843E+00  0.2889E+01
 -12.906  0.2839E+00  0.2892E+01
 -12.896  0.2835E+00  0.2895E+01
 -12.886  0.2831E+00  0.2898E+01
 -12.876  0.2826E+00  0.2901E+01
 -12.866  0.2820E+00  0.2904E+01
 -12.856  0.2814E+00  0.2906E+01
 -12.846  0.2808E+00  0.2909E+01
 -12.836  0.2802E+00  0.2912E+01
 -12.826  0.2796E+00  0.2915E+01
 -12.816  0.2790E+00  0.2918E+01
 -12.806  0.2784E+00  0.2920E+01
 -12.796  0.2778E+00  0.2923E+01
 -12.786  0.2772E+00  0.2926E+01
 -12.776  0.2766E+00  0.2929E+01
 -12.766  0.2760E+00  0.2932E+01
 -12.756  0.2754E+00  0.2934E+01
 -12.746  0.2747E+00  0.2937E+01
 -12.736  0.2741E+00  0.2940E+01
 -12.726  0.2735E+00  0.2943E+01
 -12.716  0.2729E+00  0.2945E+01
 -12.706  0.2723E+00  0.2948E+01
 -12.696  0.2717E+00  0.2951E+01
 -12.686  0.2673E+00  0.2953E+01
 -12.676  0.2671E+00  0.2956E+01
 -12.666  0.2668E+00  0.2959E+01
 -12.656  0.2665E+00  0.2961E+01
 -12.646  0.2662E+00  0.2964E+01
 -12.636  0.2660E+00  0.2967E+01
 -12.626  0.2657E+00  0.2969E+01
 -12.616  0.2654E+00  0.2972E+01
 -12.606  0.2651E+00  0.2975E+01
 -12.596  0.2647E+00  0.2977E+01
 -12.586  0.2643E+00  0.2980E+01
 -12.576  0.2640E+00  0.2983E+01
 -12.566  0.2636E+00  0.2985E+01
 -12.556  0.2632E+00  0.2988E+01
 -12.546  0.2628E+00  0.2991E+01
 -12.536  0.2624E+00  0.2993E+01
 -12.526  0.2620E+00  0.2996E+01
 -12.516  0.2616E+00  0.2998E+01
 -12.506  0.2612E+00  0.3001E+01
 -12.496  0.2608E+00  0.3004E+01
 -12.486  0.2605E+00  0.3006E+01
 -12.476  0.2601E+00  0.3009E+01
 -12.466  0.2597E+00  0.3011E+01
 -12.456  0.2593E+00  0.3014E+01
 -12.446  0.2589E+00  0.3017E+01
 -12.436  0.2585E+00  0.3019E+01
 -12.426  0.2581E+00  0.3022E+01
 -12.416  0.2577E+00  0.3024E+01
 -12.406  0.2573E+00  0.3027E+01
 -12.396  0.2570E+00  0.3030E+01
 -12.386  0.2783E+00  0.3032E+01
 -12.376  0.3049E+00  0.3035E+01
 -12.366  0.3315E+00  0.3038E+01
 -12.356  0.3581E+00  0.3042E+01
 -12.346  0.3844E+00  0.3045E+01
 -12.336  0.4104E+00  0.3049E+01
 -12.326  0.4365E+00  0.3054E+01
 -12.316  0.4626E+00  0.3058E+01
 -12.306  0.3745E+00  0.3062E+01
 -12.296  0.3756E+00  0.3066E+01
 -12.286  0.3768E+00  0.3070E+01
 -12.276  0.3779E+00  0.3074E+01
 -12.266  0.3790E+00  0.3077E+01
 -12.256  0.3801E+00  0.3081E+01
 -12.246  0.3817E+00  0.3085E+01
 -12.236  0.3835E+00  0.3089E+01
 -12.226  0.3853E+00  0.3093E+01
 -12.216  0.3871E+00  0.3097E+01
 -12.206  0.3889E+00  0.3100E+01
 -12.196  0.3907E+00  0.3104E+01
 -12.186  0.3925E+00  0.3108E+01
 -12.176  0.3949E+00  0.3112E+01
 -12.166  0.3974E+00  0.3116E+01
 -12.156  0.3999E+00  0.3120E+01
 -12.146  0.4024E+00  0.3124E+01
 -12.136  0.4049E+00  0.3128E+01
 -12.126  0.4074E+00  0.3132E+01
 -12.116  0.4057E+00  0.3136E+01
 -12.106  0.4024E+00  0.3140E+01
 -12.096  0.3992E+00  0.3144E+01
 -12.086  0.3960E+00  0.3148E+01
 -12.076  0.3934E+00  0.3152E+01
 -12.066  0.3938E+00  0.3156E+01
 -12.056  0.3942E+00  0.3160E+01
 -12.046  0.3946E+00  0.3164E+01
 -12.036  0.3950E+00  0.3168E+01
 -12.026  0.3953E+00  0.3172E+01
 -12.016  0.3955E+00  0.3176E+01
 -12.006  0.3956E+00  0.3180E+01
 -11.996  0.3958E+00  0.3184E+01
 -11.986  0.3960E+00  0.3188E+01
 -11.976  0.3962E+00  0.3192E+01
 -11.966  0.3964E+00  0.3196E+01
 -11.956  0.3966E+00  0.3200E+01
 -11.946  0.3967E+00  0.3204E+01
 -11.936  0.3990E+00  0.3208E+01
 -11.926  0.3998E+00  0.3212E+01
 -11.916  0.4007E+00  0.3216E+01
 -11.906  0.4015E+00  0.3220E+01
 -11.896  0.4024E+00  0.3224E+01
 -11.886  0.4032E+00  0.3228E+01
 -11.876  0.4041E+00  0.3232E+01
 -11.866  0.4049E+00  0.3236E+01
 -11.856  0.4058E+00  0.3240E+01
 -11.846  0.4034E+00  0.3244E+01
 -11.836  0.4046E+00  0.3248E+01
 -11.826  0.4057E+00  0.3252E+01
 -11.816  0.4068E+00  0.3256E+01
 -11.806  0.4080E+00  0.3260E+01
 -11.796  0.4048E+00  0.3264E+01
 -11.786  0.4045E+00  0.3268E+01
 -11.776  0.4042E+00  0.3272E+01
 -11.766  0.4039E+00  0.3276E+01
 -11.756  0.4036E+00  0.3280E+01
 -11.746  0.4033E+00  0.3284E+01
 -11.736  0.4030E+00  0.3288E+01
 -11.726  0.4028E+00  0.3292E+01
 -11.716  0.4030E+00  0.3296E+01
 -11.706  0.4031E+00  0.3301E+01
 -11.696  0.4037E+00  0.3305E+01
 -11.686  0.4043E+00  0.3309E+01
 -11.676  0.4050E+00  0.3313E+01
 -11.666  0.4056E+00  0.3317E+01
 -11.656  0.4063E+00  0.3321E+01
 -11.646  0.4069E+00  0.3325E+01
 -11.636  0.4076E+00  0.3329E+01
 -11.626  0.4082E+00  0.3333E+01
 -11.616  0.4089E+00  0.3337E+01
 -11.606  0.4095E+00  0.3341E+01
 -11.596  0.4102E+00  0.3345E+01
 -11.586  0.4107E+00  0.3349E+01
 -11.576  0.4112E+00  0.3353E+01
 -11.566  0.4116E+00  0.3358E+01
 -11.556  0.4121E+00  0.3362E+01
 -11.546  0.4126E+00  0.3366E+01
 -11.536  0.4130E+00  0.3370E+01
 -11.526  0.4135E+00  0.3374E+01
 -11.516  0.4140E+00  0.3378E+01
 -11.506  0.4144E+00  0.3382E+01
 -11.496  0.4149E+00  0.3386E+01
 -11.486  0.4154E+00  0.3391E+01
 -11.476  0.4158E+00  0.3395E+01
 -11.466  0.4161E+00  0.3399E+01
 -11.456  0.4162E+00  0.3403E+01
 -11.446  0.4162E+00  0.3407E+01
 -11.436  0.4163E+00  0.3411E+01
 -11.426  0.4163E+00  0.3416E+01
 -11.416  0.4164E+00  0.3420E+01
 -11.406  0.4159E+00  0.3424E+01
 -11.396  0.4148E+00  0.3428E+01
 -11.386  0.4137E+00  0.3432E+01
 -11.376  0.4163E+00  0.3436E+01
 -11.366  0.4166E+00  0.3441E+01
 -11.356  0.4170E+00  0.3445E+01
 -11.346  0.4174E+00  0.3449E+01
 -11.336  0.4178E+00  0.3453E+01
 -11.326  0.4182E+00  0.3457E+01
 -11.316  0.4187E+00  0.3461E+01
 -11.306  0.4191E+00  0.3466E+01
 -11.296  0.4195E+00  0.3470E+01
 -11.286  0.4200E+00  0.3474E+01
 -11.276  0.4204E+00  0.3478E+01
 -11.266  0.4209E+00  0.3482E+01
 -11.256  0.4213E+00  0.3487E+01
 -11.246  0.4218E+00  0.3491E+01
 -11.236  0.4223E+00  0.3495E+01
 -11.226  0.4227E+00  0.3499E+01
 -11.216  0.4232E+00  0.3504E+01
 -11.206  0.4236E+00  0.3508E+01
 -11.196  0.4241E+00  0.3512E+01
 -11.186  0.4245E+00  0.3516E+01
 -11.176  0.4250E+00  0.3520E+01
 -11.166  0.4254E+00  0.3525E+01
 -11.156  0.4257E+00  0.3529E+01
 -11.146  0.4261E+00  0.3533E+01
 -11.136  0.4265E+00  0.3538E+01
 -11.126  0.4268E+00  0.3542E+01
 -11.116  0.4272E+00  0.3546E+01
 -11.106  0.4274E+00  0.3550E+01
 -11.096  0.4276E+00  0.3555E+01
 -11.086  0.4278E+00  0.3559E+01
 -11.076  0.4285E+00  0.3563E+01
 -11.066  0.4293E+00  0.3567E+01
 -11.056  0.4300E+00  0.3572E+01
 -11.046  0.4307E+00  0.3576E+01
 -11.036  0.4314E+00  0.3580E+01
 -11.026  0.4321E+00  0.3585E+01
 -11.016  0.4328E+00  0.3589E+01
 -11.006  0.4336E+00  0.3593E+01
 -10.996  0.4343E+00  0.3598E+01
 -10.986  0.4350E+00  0.3602E+01
 -10.976  0.4357E+00  0.3606E+01
 -10.966  0.4360E+00  0.3611E+01
 -10.956  0.4364E+00  0.3615E+01
 -10.946  0.4367E+00  0.3619E+01
 -10.936  0.4345E+00  0.3624E+01
 -10.926  0.4351E+00  0.3628E+01
 -10.916  0.4356E+00  0.3633E+01
 -10.906  0.4361E+00  0.3637E+01
 -10.896  0.4366E+00  0.3641E+01
 -10.886  0.4371E+00  0.3646E+01
 -10.876  0.4377E+00  0.3650E+01
 -10.866  0.4382E+00  0.3654E+01
 -10.856  0.4387E+00  0.3659E+01
 -10.846  0.4392E+00  0.3663E+01
 -10.836  0.4397E+00  0.3668E+01
 -10.826  0.4402E+00  0.3672E+01
 -10.816  0.4407E+00  0.3676E+01
 -10.806  0.4411E+00  0.3681E+01
 -10.796  0.4416E+00  0.3685E+01
 -10.786  0.4420E+00  0.3690E+01
 -10.776  0.4425E+00  0.3694E+01
 -10.766  0.4430E+00  0.3698E+01
 -10.756  0.4434E+00  0.3703E+01
 -10.746  0.4438E+00  0.3707E+01
 -10.736  0.4442E+00  0.3712E+01
 -10.726  0.4445E+00  0.3716E+01
 -10.716  0.4449E+00  0.3721E+01
 -10.706  0.4484E+00  0.3725E+01
 -10.696  0.4489E+00  0.3730E+01
 -10.686  0.4494E+00  0.3734E+01
 -10.676  0.4500E+00  0.3739E+01
 -10.666  0.4505E+00  0.3743E+01
 -10.656  0.4511E+00  0.3748E+01
 -10.646  0.4516E+00  0.3752E+01
 -10.636  0.4521E+00  0.3757E+01
 -10.626  0.4527E+00  0.3761E+01
 -10.616  0.4532E+00  0.3766E+01
 -10.606  0.4537E+00  0.3770E+01
 -10.596  0.4543E+00  0.3775E+01
 -10.586  0.4548E+00  0.3779E+01
 -10.576  0.4554E+00  0.3784E+01
 -10.566  0.4559E+00  0.3788E+01
 -10.556  0.4564E+00  0.3793E+01
 -10.546  0.4570E+00  0.3798E+01
 -10.536  0.4575E+00  0.3802E+01
 -10.526  0.4588E+00  0.3807E+01
 -10.516  0.4600E+00  0.3811E+01
 -10.506  0.4605E+00  0.3816E+01
 -10.496  0.4608E+00  0.3820E+01
 -10.486  0.4612E+00  0.3825E+01
 -10.476  0.4616E+00  0.3830E+01
 -10.466  0.4620E+00  0.3834E+01
 -10.456  0.4623E+00  0.3839E+01
 -10.446  0.4625E+00  0.3844E+01
 -10.436  0.4629E+00  0.3848E+01
 -10.426  0.4636E+00  0.3853E+01
 -10.416  0.4643E+00  0.3857E+01
 -10.406  0.4649E+00  0.3862E+01
 -10.396  0.4655E+00  0.3867E+01
 -10.386  0.4662E+00  0.3871E+01
 -10.376  0.4671E+00  0.3876E+01
 -10.366  0.4683E+00  0.3881E+01
 -10.356  0.4694E+00  0.3885E+01
 -10.346  0.4705E+00  0.3890E+01
 -10.336  0.4715E+00  0.3895E+01
 -10.326  0.4726E+00  0.3900E+01
 -10.316  0.4736E+00  0.3904E+01
 -10.306  0.4747E+00  0.3909E+01
 -10.296  0.4757E+00  0.3914E+01
 -10.286  0.4768E+00  0.3919E+01
 -10.276  0.4775E+00  0.3923E+01
 -10.266  0.4782E+00  0.3928E+01
 -10.256  0.4788E+00  0.3933E+01
 -10.246  0.4795E+00  0.3938E+01
 -10.236  0.4801E+00  0.3942E+01
 -10.226  0.4808E+00  0.3947E+01
 -10.216  0.4814E+00  0.3952E+01
 -10.206  0.4820E+00  0.3957E+01
 -10.196  0.4825E+00  0.3962E+01
 -10.186  0.4831E+00  0.3967E+01
 -10.176  0.4837E+00  0.3971E+01
 -10.166  0.4843E+00  0.3976E+01
 -10.156  0.4848E+00  0.3981E+01
 -10.146  0.4854E+00  0.3986E+01
 -10.136  0.4859E+00  0.3991E+01
 -10.126  0.4863E+00  0.3996E+01
 -10.116  0.4868E+00  0.4001E+01
 -10.106  0.4872E+00  0.4005E+01
 -10.096  0.4905E+00  0.4010E+01
 -10.086  0.4923E+00  0.4015E+01
 -10.076  0.4940E+00  0.4020E+01
 -10.066  0.4958E+00  0.4025E+01
 -10.056  0.4970E+00  0.4030E+01
 -10.046  0.4980E+00  0.4035E+01
 -10.036  0.4990E+00  0.4040E+01
 -10.026  0.4999E+00  0.4045E+01
 -10.016  0.5009E+00  0.4050E+01
 -10.006  0.5018E+00  0.4055E+01
  -9.996  0.5028E+00  0.4060E+01
  -9.986  0.5062E+00  0.4065E+01
  -9.976  0.5052E+00  0.4070E+01
  -9.966  0.5063E+00  0.4075E+01
  -9.956  0.5075E+00  0.4080E+01
  -9.946  0.5086E+00  0.4085E+01
  -9.936  0.5097E+00  0.4090E+01
  -9.926  0.5109E+00  0.4096E+01
  -9.916  0.5120E+00  0.4101E+01
  -9.906  0.5131E+00  0.4106E+01
  -9.896  0.5143E+00  0.4111E+01
  -9.886  0.5154E+00  0.4116E+01
  -9.876  0.5164E+00  0.4121E+01
  -9.866  0.5174E+00  0.4126E+01
  -9.856  0.5184E+00  0.4132E+01
  -9.846  0.5194E+00  0.4137E+01
  -9.836  0.5204E+00  0.4142E+01
  -9.826  0.5214E+00  0.4147E+01
  -9.816  0.5224E+00  0.4152E+01
  -9.806  0.5232E+00  0.4158E+01
  -9.796  0.5240E+00  0.4163E+01
  -9.786  0.5249E+00  0.4168E+01
  -9.776  0.5257E+00  0.4173E+01
  -9.766  0.5265E+00  0.4179E+01
  -9.756  0.5272E+00  0.4184E+01
  -9.746  0.5280E+00  0.4189E+01
  -9.736  0.5287E+00  0.4194E+01
  -9.726  0.5294E+00  0.4200E+01
  -9.716  0.5300E+00  0.4205E+01
  -9.706  0.5323E+00  0.4210E+01
  -9.696  0.5381E+00  0.4216E+01
  -9.686  0.5419E+00  0.4221E+01
  -9.676  0.5442E+00  0.4227E+01
  -9.666  0.5466E+00  0.4232E+01
  -9.656  0.5490E+00  0.4237E+01
  -9.646  0.5513E+00  0.4243E+01
  -9.636  0.5533E+00  0.4248E+01
  -9.626  0.5553E+00  0.4254E+01
  -9.616  0.5576E+00  0.4260E+01
  -9.606  0.5598E+00  0.4265E+01
  -9.596  0.5620E+00  0.4271E+01
  -9.586  0.5642E+00  0.4276E+01
  -9.576  0.5664E+00  0.4282E+01
  -9.566  0.5686E+00  0.4288E+01
  -9.556  0.5708E+00  0.4293E+01
  -9.546  0.5722E+00  0.4299E+01
  -9.536  0.6391E+00  0.4305E+01
  -9.526  0.8881E+00  0.4313E+01
  -9.516  0.8221E+00  0.4322E+01
  -9.506  0.8439E+00  0.4330E+01
  -9.496  0.8657E+00  0.4339E+01
  -9.486  0.8875E+00  0.4347E+01
  -9.476  0.8874E+00  0.4356E+01
  -9.466  0.8628E+00  0.4365E+01
  -9.456  0.8565E+00  0.4374E+01
  -9.446  0.8652E+00  0.4382E+01
  -9.436  0.8740E+00  0.4391E+01
  -9.426  0.8825E+00  0.4400E+01
  -9.416  0.8911E+00  0.4409E+01
  -9.406  0.8996E+00  0.4418E+01
  -9.396  0.8776E+00  0.4426E+01
  -9.386  0.8773E+00  0.4435E+01
  -9.376  0.8770E+00  0.4444E+01
  -9.366  0.8766E+00  0.4453E+01
  -9.356  0.8949E+00  0.4462E+01
  -9.346  0.9052E+00  0.4471E+01
  -9.336  0.9153E+00  0.4480E+01
  -9.326  0.9238E+00  0.4489E+01
  -9.316  0.9313E+00  0.4498E+01
  -9.306  0.9368E+00  0.4508E+01
  -9.296  0.9310E+00  0.4517E+01
  -9.286  0.9274E+00  0.4526E+01
  -9.276  0.9317E+00  0.4535E+01
  -9.266  0.9360E+00  0.4545E+01
  -9.256  0.9393E+00  0.4554E+01
  -9.246  0.9427E+00  0.4564E+01
  -9.236  0.9461E+00  0.4573E+01
  -9.226  0.9527E+00  0.4583E+01
  -9.216  0.9579E+00  0.4592E+01
  -9.206  0.9631E+00  0.4602E+01
  -9.196  0.9683E+00  0.4611E+01
  -9.186  0.9735E+00  0.4621E+01
  -9.176  0.9787E+00  0.4631E+01
  -9.166  0.9725E+00  0.4641E+01
  -9.156  0.9732E+00  0.4650E+01
  -9.146  0.9740E+00  0.4660E+01
  -9.136  0.9749E+00  0.4670E+01
  -9.126  0.9780E+00  0.4680E+01
  -9.116  0.9815E+00  0.4689E+01
  -9.106  0.9863E+00  0.4699E+01
  -9.096  0.1017E+01  0.4709E+01
  -9.086  0.1039E+01  0.4719E+01
  -9.076  0.1051E+01  0.4730E+01
  -9.066  0.1063E+01  0.4741E+01
  -9.056  0.1076E+01  0.4751E+01
  -9.046  0.1090E+01  0.4762E+01
  -9.036  0.1102E+01  0.4773E+01
  -9.026  0.1112E+01  0.4784E+01
  -9.016  0.1119E+01  0.4795E+01
  -9.006  0.1123E+01  0.4806E+01
  -8.996  0.1135E+01  0.4818E+01
  -8.986  0.1143E+01  0.4829E+01
  -8.976  0.1151E+01  0.4841E+01
  -8.966  0.1159E+01  0.4852E+01
  -8.956  0.1167E+01  0.4864E+01
  -8.946  0.1173E+01  0.4875E+01
  -8.936  0.1180E+01  0.4887E+01
  -8.926  0.1372E+01  0.4901E+01
  -8.916  0.1447E+01  0.4915E+01
  -8.906  0.1521E+01  0.4929E+01
  -8.896  0.1562E+01  0.4945E+01
  -8.886  0.1592E+01  0.4961E+01
  -8.876  0.1505E+01  0.4976E+01
  -8.866  0.1353E+01  0.4991E+01
  -8.856  0.1333E+01  0.5004E+01
  -8.846  0.1315E+01  0.5017E+01
  -8.836  0.1292E+01  0.5030E+01
  -8.826  0.1247E+01  0.5043E+01
  -8.816  0.1215E+01  0.5055E+01
  -8.806  0.1211E+01  0.5068E+01
  -8.796  0.1208E+01  0.5080E+01
  -8.786  0.1380E+01  0.5092E+01
  -8.776  0.1499E+01  0.5107E+01
  -8.766  0.1426E+01  0.5122E+01
  -8.756  0.1353E+01  0.5136E+01
  -8.746  0.1280E+01  0.5149E+01
  -8.736  0.1183E+01  0.5161E+01
  -8.726  0.1049E+01  0.5172E+01
  -8.716  0.8452E+00  0.5182E+01
  -8.706  0.8293E+00  0.5190E+01
  -8.696  0.8129E+00  0.5198E+01
  -8.686  0.7964E+00  0.5206E+01
  -8.676  0.7797E+00  0.5214E+01
  -8.666  0.7631E+00  0.5222E+01
  -8.656  0.7464E+00  0.5229E+01
  -8.646  0.7298E+00  0.5237E+01
  -8.636  0.7131E+00  0.5244E+01
  -8.626  0.6919E+00  0.5251E+01
  -8.616  0.6178E+00  0.5258E+01
  -8.606  0.5326E+00  0.5263E+01
  -8.596  0.5260E+00  0.5269E+01
  -8.586  0.5357E+00  0.5274E+01
  -8.576  0.5454E+00  0.5279E+01
  -8.566  0.5892E+00  0.5285E+01
  -8.556  0.6782E+00  0.5291E+01
  -8.546  0.7603E+00  0.5299E+01
  -8.536  0.8169E+00  0.5306E+01
  -8.526  0.8729E+00  0.5315E+01
  -8.516  0.9289E+00  0.5324E+01
  -8.506  0.9849E+00  0.5333E+01
  -8.496  0.1041E+01  0.5344E+01
  -8.486  0.1091E+01  0.5354E+01
  -8.476  0.1127E+01  0.5365E+01
  -8.466  0.1165E+01  0.5377E+01
  -8.456  0.1206E+01  0.5389E+01
  -8.446  0.1133E+01  0.5400E+01
  -8.436  0.1045E+01  0.5411E+01
  -8.426  0.9681E+00  0.5421E+01
  -8.416  0.9664E+00  0.5431E+01
  -8.406  0.9647E+00  0.5441E+01
  -8.396  0.9630E+00  0.5450E+01
  -8.386  0.9613E+00  0.5460E+01
  -8.376  0.9084E+00  0.5469E+01
  -8.366  0.9009E+00  0.5478E+01
  -8.356  0.8937E+00  0.5487E+01
  -8.346  0.8865E+00  0.5496E+01
  -8.336  0.8817E+00  0.5505E+01
  -8.326  0.8780E+00  0.5514E+01
  -8.316  0.8738E+00  0.5523E+01
  -8.306  0.8692E+00  0.5531E+01
  -8.296  0.8646E+00  0.5540E+01
  -8.286  0.8600E+00  0.5549E+01
  -8.276  0.8572E+00  0.5557E+01
  -8.266  0.8549E+00  0.5566E+01
  -8.256  0.8528E+00  0.5574E+01
  -8.246  0.8507E+00  0.5583E+01
  -8.236  0.8486E+00  0.5591E+01
  -8.226  0.8467E+00  0.5600E+01
  -8.216  0.8453E+00  0.5608E+01
  -8.206  0.8438E+00  0.5617E+01
  -8.196  0.8424E+00  0.5625E+01
  -8.186  0.8410E+00  0.5634E+01
  -8.176  0.8400E+00  0.5642E+01
  -8.166  0.8398E+00  0.5650E+01
  -8.156  0.8397E+00  0.5659E+01
  -8.146  0.8402E+00  0.5667E+01
  -8.136  0.8406E+00  0.5676E+01
  -8.126  0.8408E+00  0.5684E+01
  -8.116  0.8170E+00  0.5692E+01
  -8.106  0.7713E+00  0.5700E+01
  -8.096  0.7509E+00  0.5708E+01
  -8.086  0.7504E+00  0.5715E+01
  -8.076  0.7502E+00  0.5723E+01
  -8.066  0.7497E+00  0.5730E+01
  -8.056  0.7379E+00  0.5738E+01
  -8.046  0.7264E+00  0.5745E+01
  -8.036  0.7223E+00  0.5752E+01
  -8.026  0.7172E+00  0.5760E+01
  -8.016  0.7131E+00  0.5767E+01
  -8.006  0.7132E+00  0.5774E+01
  -7.996  0.7172E+00  0.5781E+01
  -7.986  0.7212E+00  0.5788E+01
  -7.976  0.7252E+00  0.5795E+01
  -7.966  0.7292E+00  0.5803E+01
  -7.956  0.7368E+00  0.5810E+01
  -7.946  0.7462E+00  0.5817E+01
  -7.936  0.7557E+00  0.5825E+01
  -7.926  0.7651E+00  0.5833E+01
  -7.916  0.7746E+00  0.5840E+01
  -7.906  0.7474E+00  0.5848E+01
  -7.896  0.7140E+00  0.5855E+01
  -7.886  0.6806E+00  0.5862E+01
  -7.876  0.6487E+00  0.5869E+01
  -7.866  0.6297E+00  0.5875E+01
  -7.856  0.6107E+00  0.5881E+01
  -7.846  0.6177E+00  0.5888E+01
  -7.836  0.6490E+00  0.5894E+01
  -7.826  0.6757E+00  0.5900E+01
  -7.816  0.6857E+00  0.5907E+01
  -7.806  0.6976E+00  0.5914E+01
  -7.796  0.7095E+00  0.5921E+01
  -7.786  0.7212E+00  0.5928E+01
  -7.776  0.7324E+00  0.5936E+01
  -7.766  0.7436E+00  0.5943E+01
  -7.756  0.7548E+00  0.5951E+01
  -7.746  0.7689E+00  0.5958E+01
  -7.736  0.7808E+00  0.5966E+01
  -7.726  0.7927E+00  0.5974E+01
  -7.716  0.8050E+00  0.5982E+01
  -7.706  0.8184E+00  0.5990E+01
  -7.696  0.8318E+00  0.5998E+01
  -7.686  0.8452E+00  0.6006E+01
  -7.676  0.8198E+00  0.6015E+01
  -7.666  0.7369E+00  0.6023E+01
  -7.656  0.7322E+00  0.6030E+01
  -7.646  0.7275E+00  0.6037E+01
  -7.636  0.7228E+00  0.6045E+01
  -7.626  0.7180E+00  0.6052E+01
  -7.616  0.7132E+00  0.6059E+01
  -7.606  0.7098E+00  0.6066E+01
  -7.596  0.7084E+00  0.6073E+01
  -7.586  0.7070E+00  0.6080E+01
  -7.576  0.7057E+00  0.6087E+01
  -7.566  0.7043E+00  0.6094E+01
  -7.556  0.7029E+00  0.6101E+01
  -7.546  0.7016E+00  0.6108E+01
  -7.536  0.7003E+00  0.6115E+01
  -7.526  0.6990E+00  0.6122E+01
  -7.516  0.6976E+00  0.6129E+01
  -7.506  0.6950E+00  0.6136E+01
  -7.496  0.6927E+00  0.6143E+01
  -7.486  0.6910E+00  0.6150E+01
  -7.476  0.6893E+00  0.6157E+01
  -7.466  0.6876E+00  0.6164E+01
  -7.456  0.6860E+00  0.6171E+01
  -7.446  0.6844E+00  0.6178E+01
  -7.436  0.6829E+00  0.6185E+01
  -7.426  0.6815E+00  0.6191E+01
  -7.416  0.6803E+00  0.6198E+01
  -7.406  0.6813E+00  0.6205E+01
  -7.396  0.6823E+00  0.6212E+01
  -7.386  0.6826E+00  0.6219E+01
  -7.376  0.6822E+00  0.6225E+01
  -7.366  0.6818E+00  0.6232E+01
  -7.356  0.6814E+00  0.6239E+01
  -7.346  0.6827E+00  0.6246E+01
  -7.336  0.6814E+00  0.6253E+01
  -7.326  0.6801E+00  0.6260E+01
  -7.316  0.6788E+00  0.6266E+01
  -7.306  0.6776E+00  0.6273E+01
  -7.296  0.6763E+00  0.6280E+01
  -7.286  0.6750E+00  0.6287E+01
  -7.276  0.6738E+00  0.6293E+01
  -7.266  0.6725E+00  0.6300E+01
  -7.256  0.6713E+00  0.6307E+01
  -7.246  0.6701E+00  0.6314E+01
  -7.236  0.6688E+00  0.6320E+01
  -7.226  0.6677E+00  0.6327E+01
  -7.216  0.6665E+00  0.6334E+01
  -7.206  0.6653E+00  0.6340E+01
  -7.196  0.6641E+00  0.6347E+01
  -7.186  0.6629E+00  0.6354E+01
  -7.176  0.6607E+00  0.6360E+01
  -7.166  0.6591E+00  0.6367E+01
  -7.156  0.6576E+00  0.6373E+01
  -7.146  0.6560E+00  0.6380E+01
  -7.136  0.6549E+00  0.6386E+01
  -7.126  0.6536E+00  0.6393E+01
  -7.116  0.6523E+00  0.6400E+01
  -7.106  0.6510E+00  0.6406E+01
  -7.096  0.6497E+00  0.6413E+01
  -7.086  0.6553E+00  0.6419E+01
  -7.076  0.6601E+00  0.6426E+01
  -7.066  0.6591E+00  0.6432E+01
  -7.056  0.6578E+00  0.6439E+01
  -7.046  0.6565E+00  0.6445E+01
  -7.036  0.6551E+00  0.6452E+01
  -7.026  0.6538E+00  0.6459E+01
  -7.016  0.6525E+00  0.6465E+01
  -7.006  0.6512E+00  0.6472E+01
  -6.996  0.6498E+00  0.6478E+01
  -6.986  0.6486E+00  0.6485E+01
  -6.976  0.6473E+00  0.6491E+01
  -6.966  0.6460E+00  0.6498E+01
  -6.956  0.6448E+00  0.6504E+01
  -6.946  0.6436E+00  0.6510E+01
  -6.936  0.6423E+00  0.6517E+01
  -6.926  0.6411E+00  0.6523E+01
  -6.916  0.6399E+00  0.6530E+01
  -6.906  0.6389E+00  0.6536E+01
  -6.896  0.6380E+00  0.6542E+01
  -6.886  0.6370E+00  0.6549E+01
  -6.876  0.6361E+00  0.6555E+01
  -6.866  0.6352E+00  0.6562E+01
  -6.856  0.6343E+00  0.6568E+01
  -6.846  0.6334E+00  0.6574E+01
  -6.836  0.6325E+00  0.6581E+01
  -6.826  0.6320E+00  0.6587E+01
  -6.816  0.6331E+00  0.6593E+01
  -6.806  0.6426E+00  0.6600E+01
  -6.796  0.6414E+00  0.6606E+01
  -6.786  0.6402E+00  0.6612E+01
  -6.776  0.6389E+00  0.6619E+01
  -6.766  0.6377E+00  0.6625E+01
  -6.756  0.6366E+00  0.6632E+01
  -6.746  0.6355E+00  0.6638E+01
  -6.736  0.6344E+00  0.6644E+01
  -6.726  0.6330E+00  0.6651E+01
  -6.716  0.6315E+00  0.6657E+01
  -6.706  0.6300E+00  0.6663E+01
  -6.696  0.6285E+00  0.6670E+01
  -6.686  0.6270E+00  0.6676E+01
  -6.676  0.6255E+00  0.6682E+01
  -6.666  0.6241E+00  0.6688E+01
  -6.656  0.6230E+00  0.6695E+01
  -6.646  0.6221E+00  0.6701E+01
  -6.636  0.6212E+00  0.6707E+01
  -6.626  0.6204E+00  0.6713E+01
  -6.616  0.6195E+00  0.6719E+01
  -6.606  0.6186E+00  0.6726E+01
  -6.596  0.6177E+00  0.6732E+01
  -6.586  0.6168E+00  0.6738E+01
  -6.576  0.6175E+00  0.6744E+01
  -6.566  0.6206E+00  0.6750E+01
  -6.556  0.6288E+00  0.6757E+01
  -6.546  0.6275E+00  0.6763E+01
  -6.536  0.6262E+00  0.6769E+01
  -6.526  0.6249E+00  0.6775E+01
  -6.516  0.6236E+00  0.6782E+01
  -6.506  0.6223E+00  0.6788E+01
  -6.496  0.6210E+00  0.6794E+01
  -6.486  0.6197E+00  0.6800E+01
  -6.476  0.6184E+00  0.6806E+01
  -6.466  0.6171E+00  0.6813E+01
  -6.456  0.6158E+00  0.6819E+01
  -6.446  0.6139E+00  0.6825E+01
  -6.436  0.6123E+00  0.6831E+01
  -6.426  0.6111E+00  0.6837E+01
  -6.416  0.6145E+00  0.6843E+01
  -6.406  0.6136E+00  0.6849E+01
  -6.396  0.6128E+00  0.6856E+01
  -6.386  0.6119E+00  0.6862E+01
  -6.376  0.6110E+00  0.6868E+01
  -6.366  0.6102E+00  0.6874E+01
  -6.356  0.6112E+00  0.6880E+01
  -6.346  0.6189E+00  0.6886E+01
  -6.336  0.6213E+00  0.6892E+01
  -6.326  0.6191E+00  0.6899E+01
  -6.316  0.6169E+00  0.6905E+01
  -6.306  0.6146E+00  0.6911E+01
  -6.296  0.6124E+00  0.6917E+01
  -6.286  0.6102E+00  0.6923E+01
  -6.276  0.6080E+00  0.6929E+01
  -6.266  0.6058E+00  0.6935E+01
  -6.256  0.6037E+00  0.6941E+01
  -6.246  0.6016E+00  0.6947E+01
  -6.236  0.5995E+00  0.6953E+01
  -6.226  0.5983E+00  0.6959E+01
  -6.216  0.6005E+00  0.6965E+01
  -6.206  0.6030E+00  0.6971E+01
  -6.196  0.6054E+00  0.6977E+01
  -6.186  0.6078E+00  0.6983E+01
  -6.176  0.6103E+00  0.6990E+01
  -6.166  0.6243E+00  0.6996E+01
  -6.156  0.6230E+00  0.7002E+01
  -6.146  0.6195E+00  0.7008E+01
  -6.136  0.6154E+00  0.7014E+01
  -6.126  0.6113E+00  0.7021E+01
  -6.116  0.6072E+00  0.7027E+01
  -6.106  0.6031E+00  0.7033E+01
  -6.096  0.5990E+00  0.7039E+01
  -6.086  0.5948E+00  0.7045E+01
  -6.076  0.5907E+00  0.7051E+01
  -6.066  0.5963E+00  0.7057E+01
  -6.056  0.6046E+00  0.7063E+01
  -6.046  0.6127E+00  0.7069E+01
  -6.036  0.6100E+00  0.7075E+01
  -6.026  0.6015E+00  0.7081E+01
  -6.016  0.5930E+00  0.7087E+01
  -6.006  0.6352E+00  0.7093E+01
  -5.996  0.6109E+00  0.7099E+01
  -5.986  0.5866E+00  0.7105E+01
  -5.976  0.5622E+00  0.7111E+01
  -5.966  0.6142E+00  0.7117E+01
  -5.956  0.5180E+00  0.7123E+01
  -5.946  0.4217E+00  0.7128E+01
  -5.936  0.3653E+00  0.7132E+01
  -5.926  0.3660E+00  0.7135E+01
  -5.916  0.3667E+00  0.7139E+01
  -5.906  0.3674E+00  0.7143E+01
  -5.896  0.3681E+00  0.7146E+01
  -5.886  0.3688E+00  0.7150E+01
  -5.876  0.3695E+00  0.7154E+01
  -5.866  0.3703E+00  0.7157E+01
  -5.856  0.3710E+00  0.7161E+01
  -5.846  0.3718E+00  0.7165E+01
  -5.836  0.3726E+00  0.7168E+01
  -5.826  0.3735E+00  0.7172E+01
  -5.816  0.3744E+00  0.7176E+01
  -5.806  0.3753E+00  0.7180E+01
  -5.796  0.3761E+00  0.7183E+01
  -5.786  0.3770E+00  0.7187E+01
  -5.776  0.3779E+00  0.7191E+01
  -5.766  0.3788E+00  0.7195E+01
  -5.756  0.3796E+00  0.7199E+01
  -5.746  0.3805E+00  0.7202E+01
  -5.736  0.3814E+00  0.7206E+01
  -5.726  0.3824E+00  0.7210E+01
  -5.716  0.3834E+00  0.7214E+01
  -5.706  0.3844E+00  0.7218E+01
  -5.696  0.3853E+00  0.7222E+01
  -5.686  0.3863E+00  0.7225E+01
  -5.676  0.3873E+00  0.7229E+01
  -5.666  0.3883E+00  0.7233E+01
  -5.656  0.3891E+00  0.7237E+01
  -5.646  0.3900E+00  0.7241E+01
  -5.636  0.3909E+00  0.7245E+01
  -5.626  0.3919E+00  0.7249E+01
  -5.616  0.3930E+00  0.7253E+01
  -5.606  0.3941E+00  0.7257E+01
  -5.596  0.3953E+00  0.7261E+01
  -5.586  0.3965E+00  0.7264E+01
  -5.576  0.3979E+00  0.7268E+01
  -5.566  0.3992E+00  0.7272E+01
  -5.556  0.4005E+00  0.7276E+01
  -5.546  0.4018E+00  0.7280E+01
  -5.536  0.4031E+00  0.7284E+01
  -5.526  0.4045E+00  0.7289E+01
  -5.516  0.4059E+00  0.7293E+01
  -5.506  0.4074E+00  0.7297E+01
  -5.496  0.4088E+00  0.7301E+01
  -5.486  0.4103E+00  0.7305E+01
  -5.476  0.4117E+00  0.7309E+01
  -5.466  0.4131E+00  0.7313E+01
  -5.456  0.4147E+00  0.7317E+01
  -5.446  0.4165E+00  0.7321E+01
  -5.436  0.4184E+00  0.7325E+01
  -5.426  0.4204E+00  0.7330E+01
  -5.416  0.4223E+00  0.7334E+01
  -5.406  0.4243E+00  0.7338E+01
  -5.396  0.4262E+00  0.7342E+01
  -5.386  0.4282E+00  0.7347E+01
  -5.376  0.4301E+00  0.7351E+01
  -5.366  0.4321E+00  0.7355E+01
  -5.356  0.4340E+00  0.7360E+01
  -5.346  0.4361E+00  0.7364E+01
  -5.336  0.4385E+00  0.7368E+01
  -5.326  0.4408E+00  0.7373E+01
  -5.316  0.4431E+00  0.7377E+01
  -5.306  0.4454E+00  0.7382E+01
  -5.296  0.4480E+00  0.7386E+01
  -5.286  0.4507E+00  0.7391E+01
  -5.276  0.4534E+00  0.7395E+01
  -5.266  0.4561E+00  0.7400E+01
  -5.256  0.4588E+00  0.7404E+01
  -5.246  0.4616E+00  0.7409E+01
  -5.236  0.4651E+00  0.7413E+01
  -5.226  0.4687E+00  0.7418E+01
  -5.216  0.4724E+00  0.7423E+01
  -5.206  0.4762E+00  0.7428E+01
  -5.196  0.4801E+00  0.7432E+01
  -5.186  0.4839E+00  0.7437E+01
  -5.176  0.4878E+00  0.7442E+01
  -5.166  0.4920E+00  0.7447E+01
  -5.156  0.4961E+00  0.7452E+01
  -5.146  0.5003E+00  0.7457E+01
  -5.136  0.5062E+00  0.7462E+01
  -5.126  0.5133E+00  0.7467E+01
  -5.116  0.5206E+00  0.7472E+01
  -5.106  0.5279E+00  0.7477E+01
  -5.096  0.5353E+00  0.7483E+01
  -5.086  0.5426E+00  0.7488E+01
  -5.076  0.5504E+00  0.7494E+01
  -5.066  0.5592E+00  0.7499E+01
  -5.056  0.5679E+00  0.7505E+01
  -5.046  0.5766E+00  0.7510E+01
  -5.036  0.5904E+00  0.7516E+01
  -5.026  0.6076E+00  0.7522E+01
  -5.016  0.6284E+00  0.7528E+01
  -5.006  0.6492E+00  0.7535E+01
  -4.996  0.6699E+00  0.7541E+01
  -4.986  0.6907E+00  0.7548E+01
  -4.976  0.7357E+00  0.7555E+01
  -4.966  0.7846E+00  0.7563E+01
  -4.956  0.8334E+00  0.7571E+01
  -4.946  0.8935E+00  0.7584E+01
  -4.936  0.7114E+00  0.7592E+01
  -4.926  0.6740E+00  0.7599E+01
  -4.916  0.6366E+00  0.7605E+01
  -4.906  0.5993E+00  0.7611E+01
  -4.896  0.5619E+00  0.7617E+01
  -4.886  0.5246E+00  0.7623E+01
  -4.876  0.5327E+00  0.7628E+01
  -4.866  0.5427E+00  0.7633E+01
  -4.856  0.5528E+00  0.7639E+01
  -4.846  0.5628E+00  0.7644E+01
  -4.836  0.4523E+00  0.7650E+01
  -4.826  0.4671E+00  0.7654E+01
  -4.816  0.4832E+00  0.7659E+01
  -4.806  0.5012E+00  0.7664E+01
  -4.796  0.5090E+00  0.7669E+01
  -4.786  0.4957E+00  0.7674E+01
  -4.776  0.4824E+00  0.7679E+01
  -4.766  0.4691E+00  0.7684E+01
  -4.756  0.4558E+00  0.7688E+01
  -4.746  0.4424E+00  0.7693E+01
  -4.736  0.4291E+00  0.7697E+01
  -4.726  0.4158E+00  0.7701E+01
  -4.716  0.4025E+00  0.7706E+01
  -4.706  0.3924E+00  0.7710E+01
  -4.696  0.3899E+00  0.7713E+01
  -4.686  0.3874E+00  0.7717E+01
  -4.676  0.3849E+00  0.7721E+01
  -4.666  0.3824E+00  0.7725E+01
  -4.656  0.3798E+00  0.7729E+01
  -4.646  0.3773E+00  0.7733E+01
  -4.636  0.3748E+00  0.7736E+01
  -4.626  0.3723E+00  0.7740E+01
  -4.616  0.3698E+00  0.7744E+01
  -4.606  0.3673E+00  0.7748E+01
  -4.596  0.3280E+00  0.7751E+01
  -4.586  0.3282E+00  0.7754E+01
  -4.576  0.3283E+00  0.7757E+01
  -4.566  0.3285E+00  0.7761E+01
  -4.556  0.3286E+00  0.7764E+01
  -4.546  0.3287E+00  0.7767E+01
  -4.536  0.3289E+00  0.7771E+01
  -4.526  0.3290E+00  0.7774E+01
  -4.516  0.3260E+00  0.7777E+01
  -4.506  0.3223E+00  0.7780E+01
  -4.496  0.3186E+00  0.7784E+01
  -4.486  0.3149E+00  0.7787E+01
  -4.476  0.3113E+00  0.7790E+01
  -4.466  0.3072E+00  0.7793E+01
  -4.456  0.3022E+00  0.7796E+01
  -4.446  0.2972E+00  0.7799E+01
  -4.436  0.2923E+00  0.7802E+01
  -4.426  0.2867E+00  0.7805E+01
  -4.416  0.2810E+00  0.7808E+01
  -4.406  0.2792E+00  0.7811E+01
  -4.396  0.2770E+00  0.7813E+01
  -4.386  0.2747E+00  0.7816E+01
  -4.376  0.2725E+00  0.7819E+01
  -4.366  0.2703E+00  0.7822E+01
  -4.356  0.2681E+00  0.7824E+01
  -4.346  0.2659E+00  0.7827E+01
  -4.336  0.2637E+00  0.7830E+01
  -4.326  0.2615E+00  0.7832E+01
  -4.316  0.2593E+00  0.7835E+01
  -4.306  0.2571E+00  0.7837E+01
  -4.296  0.2549E+00  0.7840E+01
  -4.286  0.2527E+00  0.7842E+01
  -4.276  0.2504E+00  0.7845E+01
  -4.266  0.2482E+00  0.7847E+01
  -4.256  0.2460E+00  0.7850E+01
  -4.246  0.2247E+00  0.7852E+01
  -4.236  0.2240E+00  0.7854E+01
  -4.226  0.2232E+00  0.7857E+01
  -4.216  0.2225E+00  0.7859E+01
  -4.206  0.2217E+00  0.7861E+01
  -4.196  0.2210E+00  0.7863E+01
  -4.186  0.2202E+00  0.7866E+01
  -4.176  0.2194E+00  0.7868E+01
  -4.166  0.2187E+00  0.7870E+01
  -4.156  0.2179E+00  0.7872E+01
  -4.146  0.2172E+00  0.7874E+01
  -4.136  0.2164E+00  0.7876E+01
  -4.126  0.2148E+00  0.7879E+01
  -4.116  0.2120E+00  0.7881E+01
  -4.106  0.2093E+00  0.7883E+01
  -4.096  0.2066E+00  0.7885E+01
  -4.086  0.2038E+00  0.7887E+01
  -4.076  0.2011E+00  0.7889E+01
  -4.066  0.1984E+00  0.7891E+01
  -4.056  0.1956E+00  0.7893E+01
  -4.046  0.1929E+00  0.7895E+01
  -4.036  0.1895E+00  0.7897E+01
  -4.026  0.1860E+00  0.7899E+01
  -4.016  0.1825E+00  0.7901E+01
  -4.006  0.1795E+00  0.7902E+01
  -3.996  0.1782E+00  0.7904E+01
  -3.986  0.1767E+00  0.7906E+01
  -3.976  0.1752E+00  0.7908E+01
  -3.966  0.1737E+00  0.7909E+01
  -3.956  0.1722E+00  0.7911E+01
  -3.946  0.1707E+00  0.7913E+01
  -3.936  0.1692E+00  0.7915E+01
  -3.926  0.1677E+00  0.7916E+01
  -3.916  0.1662E+00  0.7918E+01
  -3.906  0.1647E+00  0.7920E+01
  -3.896  0.1632E+00  0.7921E+01
  -3.886  0.1617E+00  0.7923E+01
  -3.876  0.1602E+00  0.7924E+01
  -3.866  0.1587E+00  0.7926E+01
  -3.856  0.1572E+00  0.7928E+01
  -3.846  0.1557E+00  0.7929E+01
  -3.836  0.1542E+00  0.7931E+01
  -3.826  0.1527E+00  0.7932E+01
  -3.816  0.1512E+00  0.7934E+01
  -3.806  0.1497E+00  0.7935E+01
  -3.796  0.1341E+00  0.7937E+01
  -3.786  0.1334E+00  0.7938E+01
  -3.776  0.1327E+00  0.7939E+01
  -3.766  0.1320E+00  0.7941E+01
  -3.756  0.1313E+00  0.7942E+01
  -3.746  0.1306E+00  0.7943E+01
  -3.736  0.1300E+00  0.7945E+01
  -3.726  0.1293E+00  0.7946E+01
  -3.716  0.1286E+00  0.7947E+01
  -3.706  0.1279E+00  0.7949E+01
  -3.696  0.1272E+00  0.7950E+01
  -3.686  0.1265E+00  0.7951E+01
  -3.676  0.1258E+00  0.7952E+01
  -3.666  0.1251E+00  0.7954E+01
  -3.656  0.1244E+00  0.7955E+01
  -3.646  0.1230E+00  0.7956E+01
  -3.636  0.1209E+00  0.7957E+01
  -3.626  0.1188E+00  0.7959E+01
  -3.616  0.1167E+00  0.7960E+01
  -3.606  0.1146E+00  0.7961E+01
  -3.596  0.1124E+00  0.7962E+01
  -3.586  0.1101E+00  0.7963E+01
  -3.576  0.1078E+00  0.7964E+01
  -3.566  0.1054E+00  0.7965E+01
  -3.556  0.1031E+00  0.7966E+01
  -3.546  0.1008E+00  0.7967E+01
  -3.536  0.9842E-01  0.7968E+01
  -3.526  0.9609E-01  0.7969E+01
  -3.516  0.9375E-01  0.7970E+01
  -3.506  0.9142E-01  0.7971E+01
  -3.496  0.8908E-01  0.7972E+01
  -3.486  0.8700E-01  0.7973E+01
  -3.476  0.8612E-01  0.7974E+01
  -3.466  0.8525E-01  0.7975E+01
  -3.456  0.8437E-01  0.7976E+01
  -3.446  0.8350E-01  0.7976E+01
  -3.436  0.8262E-01  0.7977E+01
  -3.426  0.8175E-01  0.7978E+01
  -3.416  0.8087E-01  0.7979E+01
  -3.406  0.8000E-01  0.7980E+01
  -3.396  0.7912E-01  0.7980E+01
  -3.386  0.7825E-01  0.7981E+01
  -3.376  0.7737E-01  0.7982E+01
  -3.366  0.7650E-01  0.7983E+01
  -3.356  0.7562E-01  0.7984E+01
  -3.346  0.7475E-01  0.7984E+01
  -3.336  0.7387E-01  0.7985E+01
  -3.326  0.7300E-01  0.7986E+01
  -3.316  0.7212E-01  0.7986E+01
  -3.306  0.7125E-01  0.7987E+01
  -3.296  0.7037E-01  0.7988E+01
  -3.286  0.6950E-01  0.7989E+01
  -3.276  0.6862E-01  0.7989E+01
  -3.266  0.6775E-01  0.7990E+01
  -3.256  0.6687E-01  0.7991E+01
  -3.246  0.4592E-01  0.7991E+01
  -3.236  0.4473E-01  0.7992E+01
  -3.226  0.4354E-01  0.7992E+01
  -3.216  0.4235E-01  0.7992E+01
  -3.206  0.4116E-01  0.7993E+01
  -3.196  0.3998E-01  0.7993E+01
  -3.186  0.3879E-01  0.7994E+01
  -3.176  0.3760E-01  0.7994E+01
  -3.166  0.3641E-01  0.7994E+01
  -3.156  0.3522E-01  0.7995E+01
  -3.146  0.3403E-01  0.7995E+01
  -3.136  0.3285E-01  0.7995E+01
  -3.126  0.3166E-01  0.7996E+01
  -3.116  0.3047E-01  0.7996E+01
  -3.106  0.2928E-01  0.7996E+01
  -3.096  0.2809E-01  0.7997E+01
  -3.086  0.2690E-01  0.7997E+01
  -3.076  0.2572E-01  0.7997E+01
  -3.066  0.2453E-01  0.7997E+01
  -3.056  0.2334E-01  0.7998E+01
  -3.046  0.2215E-01  0.7998E+01
  -3.036  0.2096E-01  0.7998E+01
  -3.026  0.1977E-01  0.7998E+01
  -3.016  0.1859E-01  0.7999E+01
  -3.006  0.1740E-01  0.7999E+01
  -2.996  0.1621E-01  0.7999E+01
  -2.986  0.1502E-01  0.7999E+01
  -2.976  0.1383E-01  0.7999E+01
  -2.966  0.1264E-01  0.7999E+01
  -2.956  0.1146E-01  0.7999E+01
  -2.946  0.1027E-01  0.8000E+01
  -2.936  0.9080E-02  0.8000E+01
  -2.926  0.7891E-02  0.8000E+01
  -2.916  0.6703E-02  0.8000E+01
  -2.906  0.5515E-02  0.8000E+01
  -2.896  0.4326E-02  0.8000E+01
  -2.886  0.3138E-02  0.8000E+01
  -2.876  0.1950E-02  0.8000E+01
  -2.866  0.7615E-03  0.8000E+01
  -2.856  0.4369E-03  0.8000E+01
  -2.846  0.1653E-02  0.8000E+01
  -2.836  0.2870E-02  0.8000E+01
  -2.826  0.4087E-02  0.8000E+01
  -2.816  0.5303E-02  0.8000E+01
  -2.806  0.6520E-02  0.8000E+01
  -2.796  0.7736E-02  0.8000E+01
  -2.786  0.8953E-02  0.8000E+01
  -2.776  0.1017E-01  0.8000E+01
  -2.766  0.1139E-01  0.8001E+01
  -2.756  0.1260E-01  0.8001E+01
  -2.746  0.1382E-01  0.8001E+01
  -2.736  0.1504E-01  0.8001E+01
  -2.726  0.1625E-01  0.8001E+01
  -2.716  0.1747E-01  0.8001E+01
  -2.706  0.1869E-01  0.8001E+01
  -2.696  0.1990E-01  0.8002E+01
  -2.686  0.2112E-01  0.8002E+01
  -2.676  0.2233E-01  0.8002E+01
  -2.666  0.2355E-01  0.8002E+01
  -2.656  0.2477E-01  0.8003E+01
  -2.646  0.2598E-01  0.8003E+01
  -2.636  0.2720E-01  0.8003E+01
  -2.626  0.2842E-01  0.8003E+01
  -2.616  0.2963E-01  0.8004E+01
  -2.606  0.3085E-01  0.8004E+01
  -2.596  0.3207E-01  0.8004E+01
  -2.586  0.3328E-01  0.8005E+01
  -2.576  0.3450E-01  0.8005E+01
  -2.566  0.3572E-01  0.8005E+01
  -2.556  0.3693E-01  0.8006E+01
  -2.546  0.3815E-01  0.8006E+01
  -2.536  0.3937E-01  0.8006E+01
  -2.526  0.4058E-01  0.8007E+01
  -2.516  0.4180E-01  0.8007E+01
  -2.506  0.4302E-01  0.8008E+01
  -2.496  0.4423E-01  0.8008E+01
  -2.486  0.4545E-01  0.8008E+01
  -2.476  0.4667E-01  0.8009E+01
  -2.466  0.7002E-01  0.8009E+01
  -2.456  0.7090E-01  0.8010E+01
  -2.446  0.7178E-01  0.8011E+01
  -2.436  0.7266E-01  0.8012E+01
  -2.426  0.7355E-01  0.8012E+01
  -2.416  0.7443E-01  0.8013E+01
  -2.406  0.7531E-01  0.8014E+01
  -2.396  0.7619E-01  0.8015E+01
  -2.386  0.7708E-01  0.8015E+01
  -2.376  0.7796E-01  0.8016E+01
  -2.366  0.7884E-01  0.8017E+01
  -2.356  0.7972E-01  0.8018E+01
  -2.346  0.8061E-01  0.8019E+01
  -2.336  0.8149E-01  0.8019E+01
  -2.326  0.8237E-01  0.8020E+01
  -2.316  0.8325E-01  0.8021E+01
  -2.306  0.8414E-01  0.8022E+01
  -2.296  0.8502E-01  0.8023E+01
  -2.286  0.8590E-01  0.8024E+01
  -2.276  0.8678E-01  0.8024E+01
  -2.266  0.8766E-01  0.8025E+01
  -2.256  0.8855E-01  0.8026E+01
  -2.246  0.9054E-01  0.8027E+01
  -2.236  0.9338E-01  0.8028E+01
  -2.226  0.9621E-01  0.8029E+01
  -2.216  0.9905E-01  0.8030E+01
  -2.206  0.1019E+00  0.8031E+01
  -2.196  0.1047E+00  0.8032E+01
  -2.186  0.1076E+00  0.8033E+01
  -2.176  0.1104E+00  0.8034E+01
  -2.166  0.1132E+00  0.8035E+01
  -2.156  0.1161E+00  0.8036E+01
  -2.146  0.1189E+00  0.8038E+01
  -2.136  0.1217E+00  0.8039E+01
  -2.126  0.1244E+00  0.8040E+01
  -2.116  0.1266E+00  0.8041E+01
  -2.106  0.1289E+00  0.8042E+01
  -2.096  0.1311E+00  0.8044E+01
  -2.086  0.1333E+00  0.8045E+01
  -2.076  0.1338E+00  0.8046E+01
  -2.066  0.1342E+00  0.8048E+01
  -2.056  0.1346E+00  0.8049E+01
  -2.046  0.1350E+00  0.8050E+01
  -2.036  0.1354E+00  0.8052E+01
  -2.026  0.1358E+00  0.8053E+01
  -2.016  0.1362E+00  0.8055E+01
  -2.006  0.1366E+00  0.8056E+01
  -1.996  0.1370E+00  0.8057E+01
  -1.986  0.1374E+00  0.8059E+01
  -1.976  0.1378E+00  0.8060E+01
  -1.966  0.1622E+00  0.8061E+01
  -1.956  0.1638E+00  0.8063E+01
  -1.946  0.1653E+00  0.8065E+01
  -1.936  0.1668E+00  0.8066E+01
  -1.926  0.1684E+00  0.8068E+01
  -1.916  0.1699E+00  0.8070E+01
  -1.906  0.1714E+00  0.8071E+01
  -1.896  0.1729E+00  0.8073E+01
  -1.886  0.1745E+00  0.8075E+01
  -1.876  0.1760E+00  0.8077E+01
  -1.866  0.1775E+00  0.8078E+01
  -1.856  0.1790E+00  0.8080E+01
  -1.846  0.1806E+00  0.8082E+01
  -1.836  0.1821E+00  0.8084E+01
  -1.826  0.1836E+00  0.8086E+01
  -1.816  0.1852E+00  0.8088E+01
  -1.806  0.1867E+00  0.8089E+01
  -1.796  0.1927E+00  0.8091E+01
  -1.786  0.1988E+00  0.8093E+01
  -1.776  0.2049E+00  0.8095E+01
  -1.766  0.2109E+00  0.8097E+01
  -1.756  0.2170E+00  0.8099E+01
  -1.746  0.2231E+00  0.8102E+01
  -1.736  0.2292E+00  0.8104E+01
  -1.726  0.2352E+00  0.8106E+01
  -1.716  0.2377E+00  0.8109E+01
  -1.706  0.2407E+00  0.8111E+01
  -1.696  0.2429E+00  0.8113E+01
  -1.686  0.2450E+00  0.8116E+01
  -1.676  0.2472E+00  0.8118E+01
  -1.666  0.2465E+00  0.8121E+01
  -1.656  0.2444E+00  0.8123E+01
  -1.646  0.2424E+00  0.8126E+01
  -1.636  0.2404E+00  0.8128E+01
  -1.626  0.2384E+00  0.8131E+01
  -1.616  0.2364E+00  0.8133E+01
  -1.606  0.2885E+00  0.8136E+01
  -1.596  0.2889E+00  0.8138E+01
  -1.586  0.2893E+00  0.8141E+01
  -1.576  0.2897E+00  0.8144E+01
  -1.566  0.2901E+00  0.8147E+01
  -1.556  0.2905E+00  0.8150E+01
  -1.546  0.2909E+00  0.8153E+01
  -1.536  0.2913E+00  0.8156E+01
  -1.526  0.2916E+00  0.8159E+01
  -1.516  0.2959E+00  0.8162E+01
  -1.506  0.3088E+00  0.8165E+01
  -1.496  0.3217E+00  0.8168E+01
  -1.486  0.3347E+00  0.8171E+01
  -1.476  0.3476E+00  0.8175E+01
  -1.466  0.3606E+00  0.8178E+01
  -1.456  0.3735E+00  0.8182E+01
  -1.446  0.3864E+00  0.8186E+01
  -1.436  0.3994E+00  0.8189E+01
  -1.426  0.4123E+00  0.8194E+01
  -1.416  0.4252E+00  0.8198E+01
  -1.406  0.4382E+00  0.8202E+01
  -1.396  0.4511E+00  0.8206E+01
  -1.386  0.5314E+00  0.8212E+01
  -1.376  0.4859E+00  0.8217E+01
  -1.366  0.4441E+00  0.8221E+01
  -1.356  0.4172E+00  0.8226E+01
  -1.346  0.4426E+00  0.8230E+01
  -1.336  0.4684E+00  0.8235E+01
  -1.326  0.4950E+00  0.8239E+01
  -1.316  0.5216E+00  0.8244E+01
  -1.306  0.5475E+00  0.8250E+01
  -1.296  0.5750E+00  0.8255E+01
  -1.286  0.6034E+00  0.8261E+01
  -1.276  0.6798E+00  0.8272E+01
  -1.266  0.7238E+00  0.8279E+01
  -1.256  0.8343E+00  0.8287E+01
  -1.246  0.1078E+01  0.8297E+01
  -1.236  0.1322E+01  0.8309E+01
  -1.226  0.8049E+00  0.8318E+01
  -1.216  0.7753E+00  0.8326E+01
  -1.206  0.7456E+00  0.8333E+01
  -1.196  0.7160E+00  0.8341E+01
  -1.186  0.6863E+00  0.8348E+01
  -1.176  0.6567E+00  0.8355E+01
  -1.166  0.6270E+00  0.8361E+01
  -1.156  0.6028E+00  0.8367E+01
  -1.146  0.5880E+00  0.8373E+01
  -1.136  0.5744E+00  0.8379E+01
  -1.126  0.5655E+00  0.8385E+01
  -1.116  0.5567E+00  0.8390E+01
  -1.106  0.5479E+00  0.8396E+01
  -1.096  0.5390E+00  0.8401E+01
  -1.086  0.5302E+00  0.8406E+01
  -1.076  0.5214E+00  0.8412E+01
  -1.066  0.5125E+00  0.8417E+01
  -1.056  0.5044E+00  0.8422E+01
  -1.046  0.4963E+00  0.8427E+01
  -1.036  0.4901E+00  0.8432E+01
  -1.026  0.4838E+00  0.8437E+01
  -1.016  0.4776E+00  0.8442E+01
  -1.006  0.4714E+00  0.8446E+01
  -0.996  0.4660E+00  0.8451E+01
  -0.986  0.4617E+00  0.8456E+01
  -0.976  0.4575E+00  0.8460E+01
  -0.966  0.4534E+00  0.8465E+01
  -0.956  0.4493E+00  0.8469E+01
  -0.946  0.4452E+00  0.8474E+01
  -0.936  0.4411E+00  0.8478E+01
  -0.926  0.4370E+00  0.8483E+01
  -0.916  0.4329E+00  0.8487E+01
  -0.906  0.4288E+00  0.8491E+01
  -0.896  0.4252E+00  0.8496E+01
  -0.886  0.4215E+00  0.8500E+01
  -0.876  0.4178E+00  0.8504E+01
  -0.866  0.4141E+00  0.8508E+01
  -0.856  0.4095E+00  0.8512E+01
  -0.846  0.4066E+00  0.8516E+01
  -0.836  0.4036E+00  0.8520E+01
  -0.826  0.4009E+00  0.8524E+01
  -0.816  0.3985E+00  0.8528E+01
  -0.806  0.3962E+00  0.8532E+01
  -0.796  0.3941E+00  0.8536E+01
  -0.786  0.3920E+00  0.8540E+01
  -0.776  0.3899E+00  0.8544E+01
  -0.766  0.3878E+00  0.8548E+01
  -0.756  0.3857E+00  0.8552E+01
  -0.746  0.3838E+00  0.8556E+01
  -0.736  0.3819E+00  0.8560E+01
  -0.726  0.3800E+00  0.8563E+01
  -0.716  0.3781E+00  0.8567E+01
  -0.706  0.3762E+00  0.8571E+01
  -0.696  0.3743E+00  0.8575E+01
  -0.686  0.3724E+00  0.8578E+01
  -0.676  0.3705E+00  0.8582E+01
  -0.666  0.3686E+00  0.8586E+01
  -0.656  0.3667E+00  0.8590E+01
  -0.646  0.3648E+00  0.8593E+01
  -0.636  0.3630E+00  0.8597E+01
  -0.626  0.3613E+00  0.8600E+01
  -0.616  0.3596E+00  0.8604E+01
  -0.606  0.3579E+00  0.8608E+01
  -0.596  0.3563E+00  0.8611E+01
  -0.586  0.3548E+00  0.8615E+01
  -0.576  0.3534E+00  0.8618E+01
  -0.566  0.3519E+00  0.8622E+01
  -0.556  0.3505E+00  0.8625E+01
  -0.546  0.3491E+00  0.8629E+01
  -0.536  0.3477E+00  0.8632E+01
  -0.526  0.3463E+00  0.8636E+01
  -0.516  0.3449E+00  0.8639E+01
  -0.506  0.3434E+00  0.8643E+01
  -0.496  0.3420E+00  0.8646E+01
  -0.486  0.3405E+00  0.8650E+01
  -0.476  0.3391E+00  0.8653E+01
  -0.466  0.3376E+00  0.8656E+01
  -0.456  0.3361E+00  0.8660E+01
  -0.446  0.3346E+00  0.8663E+01
  -0.436  0.3332E+00  0.8666E+01
  -0.426  0.3318E+00  0.8670E+01
  -0.416  0.3302E+00  0.8673E+01
  -0.406  0.3282E+00  0.8676E+01
  -0.396  0.3262E+00  0.8680E+01
  -0.386  0.3249E+00  0.8683E+01
  -0.376  0.3238E+00  0.8686E+01
  -0.366  0.3228E+00  0.8689E+01
  -0.356  0.3218E+00  0.8693E+01
  -0.346  0.3209E+00  0.8696E+01
  -0.336  0.3200E+00  0.8699E+01
  -0.326  0.3191E+00  0.8702E+01
  -0.316  0.3182E+00  0.8705E+01
  -0.306  0.3174E+00  0.8709E+01
  -0.296  0.3165E+00  0.8712E+01
  -0.286  0.3156E+00  0.8715E+01
  -0.276  0.3147E+00  0.8718E+01
  -0.266  0.3139E+00  0.8721E+01
  -0.256  0.3130E+00  0.8724E+01
  -0.246  0.3122E+00  0.8727E+01
  -0.236  0.3113E+00  0.8731E+01
  -0.226  0.3105E+00  0.8734E+01
  -0.216  0.3096E+00  0.8737E+01
  -0.206  0.3088E+00  0.8740E+01
  -0.196  0.3079E+00  0.8743E+01
  -0.186  0.3070E+00  0.8746E+01
  -0.176  0.3062E+00  0.8749E+01
  -0.166  0.3053E+00  0.8752E+01
  -0.156  0.3045E+00  0.8755E+01
  -0.146  0.3036E+00  0.8758E+01
  -0.136  0.3028E+00  0.8761E+01
  -0.126  0.3019E+00  0.8764E+01
  -0.116  0.3011E+00  0.8767E+01
  -0.106  0.3003E+00  0.8770E+01
  -0.096  0.2995E+00  0.8773E+01
  -0.086  0.2987E+00  0.8776E+01
  -0.076  0.2978E+00  0.8779E+01
  -0.066  0.2970E+00  0.8782E+01
  -0.056  0.2962E+00  0.8785E+01
  -0.046  0.2954E+00  0.8788E+01
  -0.036  0.2946E+00  0.8791E+01
  -0.026  0.2938E+00  0.8794E+01
  -0.016  0.2930E+00  0.8797E+01
  -0.006  0.2922E+00  0.8800E+01
   0.004  0.2914E+00  0.8803E+01
   0.014  0.2906E+00  0.8806E+01
   0.024  0.2898E+00  0.8809E+01
   0.034  0.2888E+00  0.8812E+01
   0.044  0.2878E+00  0.8814E+01
   0.054  0.2869E+00  0.8817E+01
   0.064  0.2859E+00  0.8820E+01
   0.074  0.2849E+00  0.8823E+01
   0.084  0.2828E+00  0.8826E+01
   0.094  0.2822E+00  0.8829E+01
   0.104  0.2817E+00  0.8831E+01
   0.114  0.2811E+00  0.8834E+01
   0.124  0.2806E+00  0.8837E+01
   0.134  0.2800E+00  0.8840E+01
   0.144  0.2794E+00  0.8843E+01
   0.154  0.2789E+00  0.8845E+01
   0.164  0.2783E+00  0.8848E+01
   0.174  0.2778E+00  0.8851E+01
   0.184  0.2772E+00  0.8854E+01
   0.194  0.2767E+00  0.8857E+01
   0.204  0.2761E+00  0.8859E+01
   0.214  0.2756E+00  0.8862E+01
   0.224  0.2750E+00  0.8865E+01
   0.234  0.2745E+00  0.8868E+01
   0.244  0.2740E+00  0.8870E+01
   0.254  0.2735E+00  0.8873E+01
   0.264  0.2729E+00  0.8876E+01
   0.274  0.2724E+00  0.8879E+01
   0.284  0.2719E+00  0.8881E+01
   0.294  0.2713E+00  0.8884E+01
   0.304  0.2708E+00  0.8887E+01
   0.314  0.2703E+00  0.8889E+01
   0.324  0.2697E+00  0.8892E+01
   0.334  0.2692E+00  0.8895E+01
   0.344  0.2686E+00  0.8897E+01
   0.354  0.2681E+00  0.8900E+01
   0.364  0.2675E+00  0.8903E+01
   0.374  0.2670E+00  0.8906E+01
   0.384  0.2664E+00  0.8908E+01
   0.394  0.2659E+00  0.8911E+01
   0.404  0.2654E+00  0.8914E+01
   0.414  0.2648E+00  0.8916E+01
   0.424  0.2643E+00  0.8919E+01
   0.434  0.2637E+00  0.8921E+01
   0.444  0.2632E+00  0.8924E+01
   0.454  0.2626E+00  0.8927E+01
   0.464  0.2620E+00  0.8929E+01
   0.474  0.2614E+00  0.8932E+01
   0.484  0.2608E+00  0.8935E+01
   0.494  0.2602E+00  0.8937E+01
   0.504  0.2596E+00  0.8940E+01
   0.514  0.2589E+00  0.8942E+01
   0.524  0.2583E+00  0.8945E+01
   0.534  0.2577E+00  0.8948E+01
   0.544  0.2571E+00  0.8950E+01
   0.554  0.2565E+00  0.8953E+01
   0.564  0.2555E+00  0.8955E+01
   0.574  0.2545E+00  0.8958E+01
   0.584  0.2535E+00  0.8960E+01
   0.594  0.2528E+00  0.8963E+01
   0.604  0.2524E+00  0.8965E+01
   0.614  0.2520E+00  0.8968E+01
   0.624  0.2516E+00  0.8970E+01
   0.634  0.2512E+00  0.8973E+01
   0.644  0.2508E+00  0.8975E+01
   0.654  0.2505E+00  0.8978E+01
   0.664  0.2501E+00  0.8980E+01
   0.674  0.2497E+00  0.8983E+01
   0.684  0.2493E+00  0.8985E+01
   0.694  0.2489E+00  0.8988E+01
   0.704  0.2485E+00  0.8990E+01
   0.714  0.2481E+00  0.8993E+01
   0.724  0.2477E+00  0.8995E+01
   0.734  0.2473E+00  0.8998E+01
   0.744  0.2469E+00  0.9000E+01
   0.754  0.2465E+00  0.9003E+01
   0.764  0.2461E+00  0.9005E+01
   0.774  0.4207E+00  0.9009E+01
   0.784  0.6024E+00  0.9014E+01
   0.794  0.4610E+00  0.9019E+01
   0.804  0.4758E+00  0.9023E+01
   0.814  0.4906E+00  0.9028E+01
   0.824  0.5053E+00  0.9033E+01
   0.834  0.5134E+00  0.9038E+01
   0.844  0.4941E+00  0.9043E+01
   0.854  0.4747E+00  0.9048E+01
   0.864  0.4782E+00  0.9053E+01
   0.874  0.4831E+00  0.9058E+01
   0.884  0.4880E+00  0.9063E+01
   0.894  0.4929E+00  0.9068E+01
   0.904  0.4978E+00  0.9073E+01
   0.914  0.5027E+00  0.9078E+01
   0.924  0.4859E+00  0.9083E+01
   0.934  0.4842E+00  0.9087E+01
   0.944  0.4826E+00  0.9092E+01
   0.954  0.4809E+00  0.9097E+01
   0.964  0.4793E+00  0.9102E+01
   0.974  0.4803E+00  0.9107E+01
   0.984  0.4825E+00  0.9111E+01
   0.994  0.4848E+00  0.9116E+01
   1.004  0.4871E+00  0.9121E+01
   1.014  0.4893E+00  0.9126E+01
   1.024  0.4915E+00  0.9131E+01
   1.034  0.4936E+00  0.9136E+01
   1.044  0.4869E+00  0.9141E+01
   1.054  0.4792E+00  0.9146E+01
   1.064  0.4765E+00  0.9150E+01
   1.074  0.4764E+00  0.9155E+01
   1.084  0.4763E+00  0.9160E+01
   1.094  0.4752E+00  0.9165E+01
   1.104  0.4754E+00  0.9169E+01
   1.114  0.4756E+00  0.9174E+01
   1.124  0.4757E+00  0.9179E+01
   1.134  0.4769E+00  0.9184E+01
   1.144  0.4782E+00  0.9188E+01
   1.154  0.4796E+00  0.9193E+01
   1.164  0.4809E+00  0.9198E+01
   1.174  0.4822E+00  0.9203E+01
   1.184  0.4835E+00  0.9208E+01
   1.194  0.4772E+00  0.9213E+01
   1.204  0.4755E+00  0.9217E+01
   1.214  0.4739E+00  0.9222E+01
   1.224  0.4723E+00  0.9227E+01
   1.234  0.4707E+00  0.9231E+01
   1.244  0.4702E+00  0.9236E+01
   1.254  0.4706E+00  0.9241E+01
   1.264  0.4709E+00  0.9246E+01
   1.274  0.4712E+00  0.9250E+01
   1.284  0.4715E+00  0.9255E+01
   1.294  0.4719E+00  0.9260E+01
   1.304  0.4722E+00  0.9264E+01
   1.314  0.4725E+00  0.9269E+01
   1.324  0.4728E+00  0.9274E+01
   1.334  0.4734E+00  0.9279E+01
   1.344  0.4741E+00  0.9283E+01
   1.354  0.4749E+00  0.9288E+01
   1.364  0.4757E+00  0.9293E+01
   1.374  0.4760E+00  0.9298E+01
   1.384  0.4723E+00  0.9302E+01
   1.394  0.4686E+00  0.9307E+01
   1.404  0.4676E+00  0.9312E+01
   1.414  0.5664E+00  0.9317E+01
   1.424  0.7444E+00  0.9323E+01
   1.434  0.6735E+00  0.9331E+01
   1.444  0.6879E+00  0.9338E+01
   1.454  0.7022E+00  0.9345E+01
   1.464  0.7167E+00  0.9352E+01
   1.474  0.7318E+00  0.9359E+01
   1.484  0.7226E+00  0.9366E+01
   1.494  0.7041E+00  0.9373E+01
   1.504  0.6964E+00  0.9380E+01
   1.514  0.7018E+00  0.9387E+01
   1.524  0.7072E+00  0.9394E+01
   1.534  0.7126E+00  0.9402E+01
   1.544  0.7179E+00  0.9409E+01
   1.554  0.8935E+00  0.9417E+01
   1.564  0.1074E+01  0.9427E+01
   1.574  0.9212E+00  0.9436E+01
   1.584  0.9350E+00  0.9446E+01
   1.594  0.9486E+00  0.9455E+01
   1.604  0.9575E+00  0.9465E+01
   1.614  0.9671E+00  0.9474E+01
   1.624  0.9500E+00  0.9484E+01
   1.634  0.9333E+00  0.9493E+01
   1.644  0.9350E+00  0.9503E+01
   1.654  0.9427E+00  0.9512E+01
   1.664  0.9503E+00  0.9521E+01
   1.674  0.9579E+00  0.9531E+01
   1.684  0.9632E+00  0.9541E+01
   1.694  0.9613E+00  0.9550E+01
   1.704  0.9593E+00  0.9560E+01
   1.714  0.9387E+00  0.9569E+01
   1.724  0.9378E+00  0.9579E+01
   1.734  0.9370E+00  0.9588E+01
   1.744  0.9365E+00  0.9597E+01
   1.754  0.9371E+00  0.9607E+01
   1.764  0.9404E+00  0.9616E+01
   1.774  0.9438E+00  0.9626E+01
   1.784  0.9482E+00  0.9635E+01
   1.794  0.9526E+00  0.9645E+01
   1.804  0.9570E+00  0.9654E+01
   1.814  0.9615E+00  0.9664E+01
   1.824  0.9620E+00  0.9673E+01
   1.834  0.9569E+00  0.9683E+01
   1.844  0.9445E+00  0.9692E+01
   1.854  0.9419E+00  0.9702E+01
   1.864  0.9388E+00  0.9711E+01
   1.874  0.9366E+00  0.9721E+01
   1.884  0.9354E+00  0.9730E+01
   1.894  0.9355E+00  0.9739E+01
   1.904  0.9362E+00  0.9749E+01
   1.914  0.9370E+00  0.9758E+01
   1.924  0.9387E+00  0.9767E+01
   1.934  0.9404E+00  0.9777E+01
   1.944  0.9424E+00  0.9786E+01
   1.954  0.9445E+00  0.9796E+01
   1.964  0.9466E+00  0.9805E+01
   1.974  0.9487E+00  0.9815E+01
   1.984  0.9430E+00  0.9824E+01
   1.994  0.9427E+00  0.9833E+01
   2.004  0.9424E+00  0.9843E+01
   2.014  0.9421E+00  0.9852E+01
   2.024  0.9412E+00  0.9862E+01
   2.034  0.9379E+00  0.9871E+01
   2.044  0.9352E+00  0.9881E+01
   2.054  0.9352E+00  0.9890E+01
   2.064  0.9357E+00  0.9899E+01
   2.074  0.9361E+00  0.9909E+01
   2.084  0.9365E+00  0.9918E+01
   2.094  0.9369E+00  0.9927E+01
   2.104  0.9373E+00  0.9937E+01
   2.114  0.9378E+00  0.9946E+01
   2.124  0.9392E+00  0.9955E+01
   2.134  0.9408E+00  0.9965E+01
   2.144  0.9390E+00  0.9974E+01
   2.154  0.9398E+00  0.9984E+01
   2.164  0.9406E+00  0.9993E+01
   2.174  0.9373E+00  0.1000E+02
   2.184  0.9339E+00  0.1001E+02
   2.194  0.9330E+00  0.1002E+02
   2.204  0.9331E+00  0.1003E+02
   2.214  0.9332E+00  0.1004E+02
   2.224  0.9334E+00  0.1005E+02
   2.234  0.9337E+00  0.1006E+02
   2.244  0.9341E+00  0.1007E+02
   2.254  0.9302E+00  0.1008E+02
   2.264  0.9296E+00  0.1009E+02
   2.274  0.9292E+00  0.1010E+02
   2.284  0.9290E+00  0.1010E+02
   2.294  0.9288E+00  0.1011E+02
   2.304  0.9293E+00  0.1012E+02
   2.314  0.9300E+00  0.1013E+02
   2.324  0.9307E+00  0.1014E+02
   2.334  0.9313E+00  0.1015E+02
   2.344  0.9320E+00  0.1016E+02
   2.354  0.9326E+00  0.1017E+02
   2.364  0.9333E+00  0.1018E+02
   2.374  0.9340E+00  0.1019E+02
   2.384  0.9348E+00  0.1020E+02
   2.394  0.9360E+00  0.1021E+02
   2.404  0.9321E+00  0.1022E+02
   2.414  0.9318E+00  0.1023E+02
   2.424  0.9317E+00  0.1024E+02
   2.434  0.9315E+00  0.1024E+02
   2.444  0.9316E+00  0.1025E+02
   2.454  0.9336E+00  0.1026E+02
   2.464  0.9341E+00  0.1027E+02
   2.474  0.9346E+00  0.1028E+02
   2.484  0.9360E+00  0.1029E+02
   2.494  0.9376E+00  0.1030E+02
   2.504  0.9381E+00  0.1031E+02
   2.514  0.9372E+00  0.1032E+02
   2.524  0.9387E+00  0.1033E+02
   2.534  0.9421E+00  0.1034E+02
   2.544  0.9458E+00  0.1035E+02
   2.554  0.9679E+00  0.1036E+02
   2.564  0.1152E+01  0.1037E+02
   2.574  0.1336E+01  0.1038E+02
   2.584  0.1178E+01  0.1039E+02
   2.594  0.1199E+01  0.1040E+02
   2.604  0.1221E+01  0.1042E+02
   2.614  0.1243E+01  0.1043E+02
   2.624  0.1254E+01  0.1044E+02
   2.634  0.1242E+01  0.1045E+02
   2.644  0.1241E+01  0.1047E+02
   2.654  0.1269E+01  0.1048E+02
   2.664  0.1319E+01  0.1049E+02
   2.674  0.1371E+01  0.1050E+02
   2.684  0.1418E+01  0.1052E+02
   2.694  0.1452E+01  0.1053E+02
   2.704  0.1485E+01  0.1055E+02
   2.714  0.1498E+01  0.1056E+02
   2.724  0.1497E+01  0.1058E+02
   2.734  0.1472E+01  0.1059E+02
   2.744  0.1448E+01  0.1061E+02
   2.754  0.1424E+01  0.1062E+02
   2.764  0.1403E+01  0.1064E+02
   2.774  0.1383E+01  0.1065E+02
   2.784  0.1344E+01  0.1066E+02
   2.794  0.1274E+01  0.1068E+02
   2.804  0.1205E+01  0.1069E+02
   2.814  0.1055E+01  0.1070E+02
   2.824  0.1020E+01  0.1071E+02
   2.834  0.9764E+00  0.1072E+02
   2.844  0.9319E+00  0.1073E+02
   2.854  0.8924E+00  0.1074E+02
   2.864  0.8700E+00  0.1075E+02
   2.874  0.8544E+00  0.1076E+02
   2.884  0.8387E+00  0.1077E+02
   2.894  0.8231E+00  0.1077E+02
   2.904  0.8075E+00  0.1078E+02
   2.914  0.7918E+00  0.1079E+02
   2.924  0.7772E+00  0.1080E+02
   2.934  0.7634E+00  0.1081E+02
   2.944  0.7509E+00  0.1081E+02
   2.954  0.7660E+00  0.1082E+02
   2.964  0.7880E+00  0.1083E+02
   2.974  0.8101E+00  0.1084E+02
   2.984  0.8247E+00  0.1084E+02
   2.994  0.8440E+00  0.1085E+02
   3.004  0.8637E+00  0.1086E+02
   3.014  0.8908E+00  0.1087E+02
   3.024  0.9404E+00  0.1088E+02
   3.034  0.9910E+00  0.1089E+02
   3.044  0.1043E+01  0.1090E+02
   3.054  0.1094E+01  0.1091E+02
   3.064  0.1247E+01  0.1092E+02
   3.074  0.1446E+01  0.1093E+02
   3.084  0.1584E+01  0.1095E+02
   3.094  0.1554E+01  0.1097E+02
   3.104  0.1523E+01  0.1098E+02
   3.114  0.1649E+01  0.1100E+02
   3.124  0.1890E+01  0.1101E+02
   3.134  0.2044E+01  0.1103E+02
   3.144  0.2002E+01  0.1105E+02
   3.154  0.2071E+01  0.1108E+02
   3.164  0.2025E+01  0.1110E+02
   3.174  0.1976E+01  0.1112E+02
   3.184  0.1923E+01  0.1114E+02
   3.194  0.2197E+01  0.1115E+02
   3.204  0.2188E+01  0.1118E+02
   3.214  0.1696E+01  0.1120E+02
   3.224  0.1490E+01  0.1122E+02
   3.234  0.1409E+01  0.1123E+02
   3.244  0.1321E+01  0.1125E+02
   3.254  0.1290E+01  0.1126E+02
   3.264  0.1277E+01  0.1127E+02
   3.274  0.1277E+01  0.1128E+02
   3.284  0.1284E+01  0.1130E+02
   3.294  0.1309E+01  0.1131E+02
   3.304  0.1328E+01  0.1132E+02
   3.314  0.1339E+01  0.1134E+02
   3.324  0.1348E+01  0.1135E+02
   3.334  0.1357E+01  0.1136E+02
   3.344  0.1366E+01  0.1138E+02
   3.354  0.1382E+01  0.1139E+02
   3.364  0.1397E+01  0.1140E+02
   3.374  0.1412E+01  0.1142E+02
   3.384  0.1427E+01  0.1143E+02
   3.394  0.1438E+01  0.1145E+02
   3.404  0.1446E+01  0.1146E+02
   3.414  0.1453E+01  0.1148E+02
   3.424  0.1459E+01  0.1149E+02
   3.434  0.1465E+01  0.1151E+02
   3.444  0.1472E+01  0.1152E+02
   3.454  0.1458E+01  0.1153E+02
   3.464  0.1451E+01  0.1155E+02
   3.474  0.1455E+01  0.1156E+02
   3.484  0.1503E+01  0.1158E+02
   3.494  0.1558E+01  0.1159E+02
   3.504  0.1598E+01  0.1161E+02
   3.514  0.1603E+01  0.1163E+02
   3.524  0.1608E+01  0.1164E+02
   3.534  0.1612E+01  0.1166E+02
   3.544  0.1615E+01  0.1167E+02
   3.554  0.1623E+01  0.1169E+02
   3.564  0.1631E+01  0.1171E+02
   3.574  0.1647E+01  0.1172E+02
   3.584  0.1668E+01  0.1174E+02
   3.594  0.1688E+01  0.1176E+02
   3.604  0.1709E+01  0.1177E+02
   3.614  0.1729E+01  0.1179E+02
   3.624  0.1756E+01  0.1181E+02
   3.634  0.1786E+01  0.1183E+02
   3.644  0.2026E+01  0.1185E+02
   3.654  0.2154E+01  0.1187E+02
   3.664  0.2322E+01  0.1189E+02
   3.674  0.2492E+01  0.1191E+02
   3.684  0.2258E+01  0.1194E+02
   3.694  0.2097E+01  0.1196E+02
   3.704  0.2037E+01  0.1198E+02
   3.714  0.1964E+01  0.1200E+02
   3.724  0.1890E+01  0.1202E+02
   3.734  0.1847E+01  0.1204E+02
   3.744  0.1840E+01  0.1206E+02
   3.754  0.1834E+01  0.1207E+02
   3.764  0.1837E+01  0.1209E+02
   3.774  0.1849E+01  0.1211E+02
   3.784  0.1832E+01  0.1213E+02
   3.794  0.1835E+01  0.1215E+02
   3.804  0.1841E+01  0.1217E+02
   3.814  0.1845E+01  0.1218E+02
   3.824  0.1850E+01  0.1220E+02
   3.834  0.1855E+01  0.1222E+02
   3.844  0.1813E+01  0.1224E+02
   3.854  0.1771E+01  0.1226E+02
   3.864  0.1728E+01  0.1228E+02
   3.874  0.1685E+01  0.1229E+02
   3.884  0.1643E+01  0.1231E+02
   3.894  0.1600E+01  0.1233E+02
   3.904  0.1558E+01  0.1234E+02
   3.914  0.1515E+01  0.1236E+02
   3.924  0.1472E+01  0.1237E+02
   3.934  0.1341E+01  0.1239E+02
   3.944  0.1247E+01  0.1240E+02
   3.954  0.1150E+01  0.1241E+02
   3.964  0.1060E+01  0.1242E+02
   3.974  0.1034E+01  0.1243E+02
   3.984  0.1030E+01  0.1244E+02
   3.994  0.1026E+01  0.1245E+02
   4.004  0.1022E+01  0.1246E+02
   4.014  0.1018E+01  0.1247E+02
   4.024  0.1015E+01  0.1248E+02
   4.034  0.1011E+01  0.1249E+02
   4.044  0.1006E+01  0.1250E+02
   4.054  0.1002E+01  0.1251E+02
   4.064  0.9987E+00  0.1252E+02
   4.074  0.9943E+00  0.1253E+02
   4.084  0.9894E+00  0.1254E+02
   4.094  0.9841E+00  0.1255E+02
   4.104  0.9791E+00  0.1256E+02
   4.114  0.9747E+00  0.1257E+02
   4.124  0.9715E+00  0.1258E+02
   4.134  0.9685E+00  0.1259E+02
   4.144  0.9654E+00  0.1260E+02
   4.154  0.9623E+00  0.1261E+02
   4.164  0.9593E+00  0.1262E+02
   4.174  0.9565E+00  0.1263E+02
   4.184  0.9538E+00  0.1264E+02
   4.194  0.9512E+00  0.1265E+02
   4.204  0.9485E+00  0.1266E+02
   4.214  0.9458E+00  0.1267E+02
   4.224  0.9431E+00  0.1268E+02
   4.234  0.9384E+00  0.1269E+02
   4.244  0.9358E+00  0.1270E+02
   4.254  0.9335E+00  0.1271E+02
   4.264  0.9314E+00  0.1272E+02
   4.274  0.9297E+00  0.1272E+02
   4.284  0.9269E+00  0.1273E+02
   4.294  0.9225E+00  0.1274E+02
   4.304  0.9163E+00  0.1275E+02
   4.314  0.9124E+00  0.1276E+02
   4.324  0.9086E+00  0.1277E+02
   4.334  0.9050E+00  0.1278E+02
   4.344  0.9021E+00  0.1279E+02
   4.354  0.8992E+00  0.1280E+02
   4.364  0.8962E+00  0.1281E+02
   4.374  0.8933E+00  0.1282E+02
   4.384  0.8904E+00  0.1282E+02
   4.394  0.8878E+00  0.1283E+02
   4.404  0.8851E+00  0.1284E+02
   4.414  0.8825E+00  0.1285E+02
   4.424  0.8801E+00  0.1286E+02
   4.434  0.8783E+00  0.1287E+02
   4.444  0.8769E+00  0.1288E+02
   4.454  0.8755E+00  0.1289E+02
   4.464  0.8730E+00  0.1290E+02
   4.474  0.8712E+00  0.1290E+02
   4.484  0.8695E+00  0.1291E+02
   4.494  0.8678E+00  0.1292E+02
   4.504  0.8661E+00  0.1293E+02
   4.514  0.8645E+00  0.1294E+02
   4.524  0.8630E+00  0.1295E+02
   4.534  0.8615E+00  0.1296E+02
   4.544  0.8602E+00  0.1296E+02
   4.554  0.8589E+00  0.1297E+02
   4.564  0.8566E+00  0.1298E+02
   4.574  0.8547E+00  0.1299E+02
   4.584  0.8528E+00  0.1300E+02
   4.594  0.8509E+00  0.1301E+02
   4.604  0.8495E+00  0.1302E+02
   4.614  0.8483E+00  0.1302E+02
   4.624  0.8470E+00  0.1303E+02
   4.634  0.8458E+00  0.1304E+02
   4.644  0.8446E+00  0.1305E+02
   4.654  0.8434E+00  0.1306E+02
   4.664  0.8422E+00  0.1307E+02
   4.674  0.8397E+00  0.1307E+02
   4.684  0.8370E+00  0.1308E+02
   4.694  0.8352E+00  0.1309E+02
   4.704  0.8334E+00  0.1310E+02
   4.714  0.8317E+00  0.1311E+02
   4.724  0.8300E+00  0.1312E+02
   4.734  0.8276E+00  0.1312E+02
   4.744  0.8253E+00  0.1313E+02
   4.754  0.8232E+00  0.1314E+02
   4.764  0.8213E+00  0.1315E+02
   4.774  0.8194E+00  0.1316E+02
   4.784  0.8175E+00  0.1317E+02
   4.794  0.8155E+00  0.1317E+02
   4.804  0.8136E+00  0.1318E+02
   4.814  0.8117E+00  0.1319E+02
   4.824  0.8103E+00  0.1320E+02
   4.834  0.8095E+00  0.1321E+02
   4.844  0.8092E+00  0.1321E+02
   4.854  0.8090E+00  0.1322E+02
   4.864  0.8089E+00  0.1323E+02
   4.874  0.8057E+00  0.1324E+02
   4.884  0.8041E+00  0.1325E+02
   4.894  0.8030E+00  0.1326E+02
   4.904  0.8021E+00  0.1326E+02
   4.914  0.8012E+00  0.1327E+02
   4.924  0.8000E+00  0.1328E+02
   4.934  0.7984E+00  0.1329E+02
   4.944  0.7970E+00  0.1330E+02
   4.954  0.7960E+00  0.1330E+02
   4.964  0.7950E+00  0.1331E+02
   4.974  0.7940E+00  0.1332E+02
   4.984  0.7930E+00  0.1333E+02
   4.994  0.7921E+00  0.1333E+02
   5.004  0.7913E+00  0.1334E+02
   5.014  0.7906E+00  0.1335E+02
   5.024  0.7901E+00  0.1336E+02
   5.034  0.7895E+00  0.1337E+02
   5.044  0.7890E+00  0.1337E+02
   5.054  0.7885E+00  0.1338E+02
   5.064  0.7877E+00  0.1339E+02
   5.074  0.7861E+00  0.1340E+02
   5.084  0.7844E+00  0.1341E+02
   5.094  0.7830E+00  0.1341E+02
   5.104  0.7817E+00  0.1342E+02
   5.114  0.7804E+00  0.1343E+02
   5.124  0.7792E+00  0.1344E+02
   5.134  0.7779E+00  0.1344E+02
   5.144  0.7766E+00  0.1345E+02
   5.154  0.7758E+00  0.1346E+02
   5.164  0.7758E+00  0.1347E+02
   5.174  0.7757E+00  0.1348E+02
   5.184  0.7753E+00  0.1348E+02
   5.194  0.7724E+00  0.1349E+02
   5.204  0.7696E+00  0.1350E+02
   5.214  0.7662E+00  0.1351E+02
   5.224  0.7632E+00  0.1351E+02
   5.234  0.7601E+00  0.1352E+02
   5.244  0.7571E+00  0.1353E+02
   5.254  0.7541E+00  0.1354E+02
   5.264  0.7523E+00  0.1354E+02
   5.274  0.7512E+00  0.1355E+02
   5.284  0.7501E+00  0.1356E+02
   5.294  0.7498E+00  0.1357E+02
   5.304  0.7496E+00  0.1357E+02
   5.314  0.7495E+00  0.1358E+02
   5.324  0.7493E+00  0.1359E+02
   5.334  0.7492E+00  0.1360E+02
   5.344  0.7490E+00  0.1360E+02
   5.354  0.7489E+00  0.1361E+02
   5.364  0.7488E+00  0.1362E+02
   5.374  0.7487E+00  0.1363E+02
   5.384  0.7486E+00  0.1363E+02
   5.394  0.7485E+00  0.1364E+02
   5.404  0.7484E+00  0.1365E+02
   5.414  0.7482E+00  0.1366E+02
   5.424  0.7481E+00  0.1366E+02
   5.434  0.7469E+00  0.1367E+02
   5.444  0.7464E+00  0.1368E+02
   5.454  0.7460E+00  0.1369E+02
   5.464  0.7455E+00  0.1369E+02
   5.474  0.7452E+00  0.1370E+02
   5.484  0.7450E+00  0.1371E+02
   5.494  0.7448E+00  0.1372E+02
   5.504  0.7446E+00  0.1372E+02
   5.514  0.7429E+00  0.1373E+02
   5.524  0.7421E+00  0.1374E+02
   5.534  0.7414E+00  0.1375E+02
   5.544  0.7407E+00  0.1375E+02
   5.554  0.7401E+00  0.1376E+02
   5.564  0.7396E+00  0.1377E+02
   5.574  0.7392E+00  0.1378E+02
   5.584  0.7387E+00  0.1378E+02
   5.594  0.7382E+00  0.1379E+02
   5.604  0.7380E+00  0.1380E+02
   5.614  0.7381E+00  0.1381E+02
   5.624  0.7375E+00  0.1381E+02
   5.634  0.7373E+00  0.1382E+02
   5.644  0.7365E+00  0.1383E+02
   5.654  0.7327E+00  0.1384E+02
   5.664  0.7315E+00  0.1384E+02
   5.674  0.7313E+00  0.1385E+02
   5.684  0.7312E+00  0.1386E+02
   5.694  0.7310E+00  0.1386E+02
   5.704  0.7308E+00  0.1387E+02
   5.714  0.7306E+00  0.1388E+02
   5.724  0.7303E+00  0.1389E+02
   5.734  0.7300E+00  0.1389E+02
   5.744  0.7293E+00  0.1390E+02
   5.754  0.7286E+00  0.1391E+02
   5.764  0.7279E+00  0.1392E+02
   5.774  0.7272E+00  0.1392E+02
   5.784  0.7265E+00  0.1393E+02
   5.794  0.7259E+00  0.1394E+02
   5.804  0.7254E+00  0.1394E+02
   5.814  0.7244E+00  0.1395E+02
   5.824  0.7234E+00  0.1396E+02
   5.834  0.7223E+00  0.1397E+02
   5.844  0.7213E+00  0.1397E+02
   5.854  0.7203E+00  0.1398E+02
   5.864  0.7192E+00  0.1399E+02
   5.874  0.7182E+00  0.1400E+02
   5.884  0.7172E+00  0.1400E+02
   5.894  0.7161E+00  0.1401E+02
   5.904  0.7150E+00  0.1402E+02
   5.914  0.7139E+00  0.1402E+02
   5.924  0.7129E+00  0.1403E+02
   5.934  0.7118E+00  0.1404E+02
   5.944  0.7107E+00  0.1405E+02
   5.954  0.7095E+00  0.1405E+02
   5.964  0.7078E+00  0.1406E+02
   5.974  0.7061E+00  0.1407E+02
   5.984  0.7056E+00  0.1407E+02
   5.994  0.7050E+00  0.1408E+02
   6.004  0.7045E+00  0.1409E+02
   6.014  0.7040E+00  0.1409E+02
   6.024  0.7034E+00  0.1410E+02
   6.034  0.7029E+00  0.1411E+02
   6.044  0.7023E+00  0.1412E+02
   6.054  0.7018E+00  0.1412E+02
   6.064  0.7012E+00  0.1413E+02
   6.074  0.7007E+00  0.1414E+02
   6.084  0.7001E+00  0.1414E+02
   6.094  0.6996E+00  0.1415E+02
   6.104  0.6991E+00  0.1416E+02
   6.114  0.6986E+00  0.1416E+02
   6.124  0.6980E+00  0.1417E+02
   6.134  0.6975E+00  0.1418E+02
   6.144  0.6970E+00  0.1419E+02
   6.154  0.6964E+00  0.1419E+02
   6.164  0.6959E+00  0.1420E+02
   6.174  0.6954E+00  0.1421E+02
   6.184  0.6948E+00  0.1421E+02
   6.194  0.6937E+00  0.1422E+02
   6.204  0.6926E+00  0.1423E+02
   6.214  0.6913E+00  0.1423E+02
   6.224  0.6900E+00  0.1424E+02
   6.234  0.6908E+00  0.1425E+02
   6.244  0.6919E+00  0.1426E+02
   6.254  0.6929E+00  0.1426E+02
   6.264  0.6930E+00  0.1427E+02
   6.274  0.6926E+00  0.1428E+02
   6.284  0.6923E+00  0.1428E+02
   6.294  0.6925E+00  0.1429E+02
   6.304  0.6927E+00  0.1430E+02
   6.314  0.6930E+00  0.1430E+02
   6.324  0.6932E+00  0.1431E+02
   6.334  0.6935E+00  0.1432E+02
   6.344  0.6937E+00  0.1432E+02
   6.354  0.6939E+00  0.1433E+02
   6.364  0.6942E+00  0.1434E+02
   6.374  0.6944E+00  0.1435E+02
   6.384  0.6953E+00  0.1435E+02
   6.394  0.6990E+00  0.1436E+02
   6.404  0.7011E+00  0.1437E+02
   6.414  0.7032E+00  0.1437E+02
   6.424  0.7038E+00  0.1438E+02
   6.434  0.7023E+00  0.1439E+02
   6.444  0.7008E+00  0.1439E+02
   6.454  0.6993E+00  0.1440E+02
   6.464  0.6977E+00  0.1441E+02
   6.474  0.6962E+00  0.1442E+02
   6.484  0.6947E+00  0.1442E+02
   6.494  0.6932E+00  0.1443E+02
   6.504  0.6917E+00  0.1444E+02
   6.514  0.6902E+00  0.1444E+02
   6.524  0.6881E+00  0.1445E+02
   6.534  0.6872E+00  0.1446E+02
   6.544  0.6863E+00  0.1446E+02
   6.554  0.6854E+00  0.1447E+02
   6.564  0.6845E+00  0.1448E+02
   6.574  0.6837E+00  0.1448E+02
   6.584  0.6828E+00  0.1449E+02
   6.594  0.6819E+00  0.1450E+02
   6.604  0.6811E+00  0.1450E+02
   6.614  0.6802E+00  0.1451E+02
   6.624  0.6793E+00  0.1452E+02
   6.634  0.6785E+00  0.1452E+02
   6.644  0.6776E+00  0.1453E+02
   6.654  0.6767E+00  0.1454E+02
   6.664  0.6759E+00  0.1455E+02
   6.674  0.6750E+00  0.1455E+02
   6.684  0.6741E+00  0.1456E+02
   6.694  0.6732E+00  0.1457E+02
   6.704  0.6724E+00  0.1457E+02
   6.714  0.6715E+00  0.1458E+02
   6.724  0.6706E+00  0.1459E+02
   6.734  0.6698E+00  0.1459E+02
   6.744  0.6692E+00  0.1460E+02
   6.754  0.6702E+00  0.1461E+02
   6.764  0.6711E+00  0.1461E+02
   6.774  0.6717E+00  0.1462E+02
   6.784  0.6714E+00  0.1463E+02
   6.794  0.6710E+00  0.1463E+02
   6.804  0.6709E+00  0.1464E+02
   6.814  0.6711E+00  0.1465E+02
   6.824  0.6714E+00  0.1465E+02
   6.834  0.6716E+00  0.1466E+02
   6.844  0.6718E+00  0.1467E+02
   6.854  0.6722E+00  0.1467E+02
   6.864  0.6738E+00  0.1468E+02
   6.874  0.6753E+00  0.1469E+02
   6.884  0.6769E+00  0.1469E+02
   6.894  0.6784E+00  0.1470E+02
   6.904  0.6810E+00  0.1471E+02
   6.914  0.6830E+00  0.1471E+02
   6.924  0.6850E+00  0.1472E+02
   6.934  0.6871E+00  0.1473E+02
   6.944  0.6887E+00  0.1473E+02
   6.954  0.6903E+00  0.1474E+02
   6.964  0.6919E+00  0.1475E+02
   6.974  0.6935E+00  0.1475E+02
   6.984  0.6951E+00  0.1476E+02
   6.994  0.6967E+00  0.1477E+02
   7.004  0.6982E+00  0.1478E+02
   7.014  0.6996E+00  0.1478E+02
   7.024  0.7011E+00  0.1479E+02
   7.034  0.7026E+00  0.1480E+02
   7.044  0.7036E+00  0.1480E+02
   7.054  0.7039E+00  0.1481E+02
   7.064  0.7042E+00  0.1482E+02
   7.074  0.7045E+00  0.1482E+02
   7.084  0.7041E+00  0.1483E+02
   7.094  0.7024E+00  0.1484E+02
   7.104  0.7007E+00  0.1485E+02
   7.114  0.6990E+00  0.1485E+02
   7.124  0.6976E+00  0.1486E+02
   7.134  0.6965E+00  0.1487E+02
   7.144  0.6954E+00  0.1487E+02
   7.154  0.6942E+00  0.1488E+02
   7.164  0.6931E+00  0.1489E+02
   7.174  0.6919E+00  0.1489E+02
   7.184  0.6907E+00  0.1490E+02
   7.194  0.6895E+00  0.1491E+02
   7.204  0.6883E+00  0.1492E+02
   7.214  0.6981E+00  0.1492E+02
   7.224  0.6975E+00  0.1493E+02
   7.234  0.6970E+00  0.1494E+02
   7.244  0.6964E+00  0.1494E+02
   7.254  0.6958E+00  0.1495E+02
   7.264  0.6952E+00  0.1496E+02
   7.274  0.6948E+00  0.1496E+02
   7.284  0.6957E+00  0.1497E+02
   7.294  0.6978E+00  0.1498E+02
   7.304  0.6998E+00  0.1498E+02
   7.314  0.7018E+00  0.1499E+02
   7.324  0.7039E+00  0.1500E+02
   7.334  0.7059E+00  0.1501E+02
   7.344  0.7079E+00  0.1501E+02
   7.354  0.7100E+00  0.1502E+02
   7.364  0.7120E+00  0.1503E+02
   7.374  0.7141E+00  0.1503E+02
   7.384  0.7520E+00  0.1504E+02
   7.394  0.7618E+00  0.1505E+02
   7.404  0.7649E+00  0.1506E+02
   7.414  0.7673E+00  0.1506E+02
   7.424  0.7698E+00  0.1507E+02
   7.434  0.7722E+00  0.1508E+02
   7.444  0.7746E+00  0.1509E+02
   7.454  0.7772E+00  0.1510E+02
   7.464  0.7798E+00  0.1510E+02
   7.474  0.7824E+00  0.1511E+02
   7.484  0.7850E+00  0.1512E+02
   7.494  0.7876E+00  0.1513E+02
   7.504  0.7948E+00  0.1513E+02
   7.514  0.8095E+00  0.1514E+02
   7.524  0.8216E+00  0.1515E+02
   7.534  0.8329E+00  0.1516E+02
   7.544  0.8442E+00  0.1517E+02
   7.554  0.9315E+00  0.1518E+02
   7.564  0.1157E+01  0.1519E+02
   7.574  0.1381E+01  0.1520E+02
   7.584  0.1527E+01  0.1521E+02
   7.594  0.1712E+01  0.1523E+02
   7.604  0.1739E+01  0.1525E+02
   7.614  0.1849E+01  0.1527E+02
   7.624  0.2167E+01  0.1529E+02
   7.634  0.2485E+01  0.1531E+02
   7.644  0.1702E+01  0.1533E+02
   7.654  0.7553E+00  0.1534E+02
   7.664  0.7528E+00  0.1535E+02
   7.674  0.7504E+00  0.1536E+02
   7.684  0.7483E+00  0.1537E+02
   7.694  0.7462E+00  0.1537E+02
   7.704  0.7421E+00  0.1538E+02
   7.714  0.7979E+00  0.1539E+02
   7.724  0.8005E+00  0.1540E+02
   7.734  0.8201E+00  0.1540E+02
   7.744  0.8397E+00  0.1541E+02
   7.754  0.8591E+00  0.1542E+02
   7.764  0.8783E+00  0.1543E+02
   7.774  0.9710E+00  0.1544E+02
   7.784  0.9554E+00  0.1545E+02
   7.794  0.9398E+00  0.1546E+02
   7.804  0.9242E+00  0.1547E+02
   7.814  0.9085E+00  0.1548E+02
   7.824  0.8928E+00  0.1548E+02
   7.834  0.8771E+00  0.1549E+02
   7.844  0.8614E+00  0.1550E+02
   7.854  0.8458E+00  0.1551E+02
   7.864  0.8309E+00  0.1552E+02
   7.874  0.8160E+00  0.1553E+02
   7.884  0.8013E+00  0.1554E+02
   7.894  0.7868E+00  0.1554E+02
   7.904  0.7723E+00  0.1555E+02
   7.914  0.7605E+00  0.1556E+02
   7.924  0.7491E+00  0.1557E+02
   7.934  0.7377E+00  0.1557E+02
   7.944  0.8100E+00  0.1558E+02
   7.954  0.8032E+00  0.1559E+02
   7.964  0.7994E+00  0.1560E+02
   7.974  0.7930E+00  0.1561E+02
   7.984  0.7893E+00  0.1561E+02
   7.994  0.7856E+00  0.1562E+02
   8.004  0.7819E+00  0.1563E+02
   8.014  0.7783E+00  0.1564E+02
   8.024  0.7746E+00  0.1564E+02
   8.034  0.7709E+00  0.1565E+02
   8.044  0.7638E+00  0.1566E+02
   8.054  0.7564E+00  0.1567E+02
   8.064  0.7518E+00  0.1568E+02
   8.074  0.7473E+00  0.1568E+02
   8.084  0.7435E+00  0.1569E+02
   8.094  0.7406E+00  0.1570E+02
   8.104  0.7194E+00  0.1571E+02
   8.114  0.7151E+00  0.1571E+02
   8.124  0.7108E+00  0.1572E+02
   8.134  0.7065E+00  0.1573E+02
   8.144  0.7022E+00  0.1573E+02
   8.154  0.6980E+00  0.1574E+02
   8.164  0.6986E+00  0.1575E+02
   8.174  0.7009E+00  0.1575E+02
   8.184  0.7034E+00  0.1576E+02
   8.194  0.7077E+00  0.1577E+02
   8.204  0.7119E+00  0.1578E+02
   8.214  0.7162E+00  0.1578E+02
   8.224  0.7204E+00  0.1579E+02
   8.234  0.7247E+00  0.1580E+02
   8.244  0.7289E+00  0.1580E+02
   8.254  0.6607E+00  0.1581E+02
   8.264  0.6572E+00  0.1582E+02
   8.274  0.7816E+00  0.1583E+02
   8.284  0.6839E+00  0.1583E+02
   8.294  0.6994E+00  0.1584E+02
   8.304  0.7196E+00  0.1585E+02
   8.314  0.7407E+00  0.1585E+02
   8.324  0.7618E+00  0.1586E+02
   8.334  0.5936E+00  0.1587E+02
   8.344  0.4138E+00  0.1587E+02
   8.354  0.2440E+00  0.1588E+02
   8.364  0.2422E+00  0.1588E+02
   8.374  0.2404E+00  0.1588E+02
   8.384  0.2386E+00  0.1589E+02
   8.394  0.2368E+00  0.1589E+02
   8.404  0.2350E+00  0.1589E+02
   8.414  0.2332E+00  0.1589E+02
   8.424  0.2313E+00  0.1589E+02
   8.434  0.2295E+00  0.1590E+02
   8.444  0.2277E+00  0.1590E+02
   8.454  0.2259E+00  0.1590E+02
   8.464  0.2241E+00  0.1590E+02
   8.474  0.2223E+00  0.1591E+02
   8.484  0.2206E+00  0.1591E+02
   8.494  0.2215E+00  0.1591E+02
   8.504  0.2225E+00  0.1591E+02
   8.514  0.2234E+00  0.1591E+02
   8.524  0.2244E+00  0.1592E+02
   8.534  0.2253E+00  0.1592E+02
   8.544  0.2263E+00  0.1592E+02
   8.554  0.2297E+00  0.1592E+02
   8.564  0.2335E+00  0.1593E+02
   8.574  0.2372E+00  0.1593E+02
   8.584  0.2409E+00  0.1593E+02
   8.594  0.2477E+00  0.1593E+02
   8.604  0.2564E+00  0.1594E+02
   8.614  0.2500E+00  0.1594E+02
   8.624  0.2525E+00  0.1594E+02
   8.634  0.2550E+00  0.1594E+02
   8.644  0.7876E+00  0.1595E+02
   8.654  0.2498E+00  0.1595E+02
   8.664  0.2420E+00  0.1596E+02
   8.674  0.2342E+00  0.1596E+02
   8.684  0.2264E+00  0.1596E+02
   8.694  0.2185E+00  0.1596E+02
   8.704  0.2107E+00  0.1596E+02
   8.714  0.2029E+00  0.1597E+02
   8.724  0.1951E+00  0.1597E+02
   8.734  0.1873E+00  0.1597E+02
   8.744  0.1794E+00  0.1597E+02
   8.754  0.1716E+00  0.1597E+02
   8.764  0.1638E+00  0.1598E+02
   8.774  0.1560E+00  0.1598E+02
   8.784  0.1482E+00  0.1598E+02
   8.794  0.1403E+00  0.1598E+02
   8.804  0.1325E+00  0.1598E+02
   8.814  0.1247E+00  0.1598E+02
   8.824  0.8291E+00  0.1599E+02
   8.834  0.3404E+00  0.1600E+02
   8.844  0.1964E+00  0.1600E+02
   8.854  0.5244E-01  0.1600E+02
