# E (eV)   ldos(E)   pdos(E)    pdos(E)    pdos(E)   
 -22.954  0.124E-07  0.590E-23  0.622E-08  0.622E-08
 -22.944  0.201E-07  0.918E-23  0.100E-07  0.100E-07
 -22.934  0.321E-07  0.141E-22  0.160E-07  0.160E-07
 -22.924  0.507E-07  0.215E-22  0.254E-07  0.254E-07
 -22.914  0.795E-07  0.325E-22  0.397E-07  0.397E-07
 -22.904  0.123E-06  0.484E-22  0.616E-07  0.616E-07
 -22.894  0.189E-06  0.714E-22  0.946E-07  0.946E-07
 -22.884  0.288E-06  0.104E-21  0.144E-06  0.144E-06
 -22.874  0.433E-06  0.151E-21  0.217E-06  0.217E-06
 -22.864  0.646E-06  0.215E-21  0.323E-06  0.323E-06
 -22.854  0.955E-06  0.304E-21  0.477E-06  0.477E-06
 -22.844  0.140E-05  0.426E-21  0.698E-06  0.698E-06
 -22.834  0.202E-05  0.590E-21  0.101E-05  0.101E-05
 -22.824  0.290E-05  0.807E-21  0.145E-05  0.145E-05
 -22.814  0.413E-05  0.109E-20  0.206E-05  0.206E-05
 -22.804  0.581E-05  0.147E-20  0.291E-05  0.291E-05
 -22.794  0.811E-05  0.195E-20  0.405E-05  0.405E-05
 -22.784  0.112E-04  0.256E-20  0.560E-05  0.560E-05
 -22.774  0.153E-04  0.332E-20  0.767E-05  0.767E-05
 -22.764  0.208E-04  0.427E-20  0.104E-04  0.104E-04
 -22.754  0.280E-04  0.543E-20  0.140E-04  0.140E-04
 -22.744  0.373E-04  0.683E-20  0.187E-04  0.187E-04
 -22.734  0.493E-04  0.850E-20  0.246E-04  0.246E-04
 -22.724  0.645E-04  0.105E-19  0.322E-04  0.322E-04
 -22.714  0.837E-04  0.128E-19  0.418E-04  0.418E-04
 -22.704  0.108E-03  0.154E-19  0.538E-04  0.538E-04
 -22.694  0.137E-03  0.184E-19  0.686E-04  0.686E-04
 -22.684  0.174E-03  0.217E-19  0.868E-04  0.868E-04
 -22.674  0.218E-03  0.254E-19  0.109E-03  0.109E-03
 -22.664  0.271E-03  0.294E-19  0.135E-03  0.135E-03
 -22.654  0.334E-03  0.337E-19  0.167E-03  0.167E-03
 -22.644  0.408E-03  0.382E-19  0.204E-03  0.204E-03
 -22.634  0.496E-03  0.428E-19  0.248E-03  0.248E-03
 -22.624  0.597E-03  0.475E-19  0.299E-03  0.299E-03
 -22.614  0.714E-03  0.522E-19  0.357E-03  0.357E-03
 -22.604  0.847E-03  0.567E-19  0.423E-03  0.423E-03
 -22.594  0.997E-03  0.610E-19  0.499E-03  0.499E-03
 -22.584  0.117E-02  0.650E-19  0.583E-03  0.583E-03
 -22.574  0.135E-02  0.686E-19  0.677E-03  0.677E-03
 -22.564  0.156E-02  0.716E-19  0.781E-03  0.781E-03
 -22.554  0.179E-02  0.740E-19  0.895E-03  0.895E-03
 -22.544  0.204E-02  0.758E-19  0.102E-02  0.102E-02
 -22.534  0.231E-02  0.769E-19  0.115E-02  0.115E-02
 -22.524  0.259E-02  0.772E-19  0.130E-02  0.130E-02
 -22.514  0.290E-02  0.769E-19  0.145E-02  0.145E-02
 -22.504  0.322E-02  0.759E-19  0.161E-02  0.161E-02
 -22.494  0.357E-02  0.742E-19  0.178E-02  0.178E-02
 -22.484  0.392E-02  0.721E-19  0.196E-02  0.196E-02
 -22.474  0.429E-02  0.695E-19  0.215E-02  0.215E-02
 -22.464  0.468E-02  0.665E-19  0.234E-02  0.234E-02
 -22.454  0.507E-02  0.633E-19  0.254E-02  0.254E-02
 -22.444  0.548E-02  0.600E-19  0.274E-02  0.274E-02
 -22.434  0.589E-02  0.567E-19  0.295E-02  0.295E-02
 -22.424  0.632E-02  0.534E-19  0.316E-02  0.316E-02
 -22.414  0.674E-02  0.503E-19  0.337E-02  0.337E-02
 -22.404  0.717E-02  0.474E-19  0.359E-02  0.359E-02
 -22.394  0.760E-02  0.447E-19  0.380E-02  0.380E-02
 -22.384  0.804E-02  0.424E-19  0.402E-02  0.402E-02
 -22.374  0.847E-02  0.404E-19  0.424E-02  0.424E-02
 -22.364  0.891E-02  0.387E-19  0.445E-02  0.445E-02
 -22.354  0.934E-02  0.373E-19  0.467E-02  0.467E-02
 -22.344  0.977E-02  0.362E-19  0.488E-02  0.488E-02
 -22.334  0.102E-01  0.353E-19  0.510E-02  0.510E-02
 -22.324  0.106E-01  0.347E-19  0.531E-02  0.531E-02
 -22.314  0.110E-01  0.342E-19  0.552E-02  0.552E-02
 -22.304  0.115E-01  0.338E-19  0.573E-02  0.573E-02
 -22.294  0.119E-01  0.334E-19  0.594E-02  0.594E-02
 -22.284  0.123E-01  0.331E-19  0.615E-02  0.615E-02
 -22.274  0.127E-01  0.328E-19  0.635E-02  0.635E-02
 -22.264  0.131E-01  0.325E-19  0.656E-02  0.656E-02
 -22.254  0.135E-01  0.321E-19  0.676E-02  0.676E-02
 -22.244  0.139E-01  0.316E-19  0.696E-02  0.696E-02
 -22.234  0.143E-01  0.311E-19  0.716E-02  0.716E-02
 -22.224  0.147E-01  0.304E-19  0.735E-02  0.735E-02
 -22.214  0.151E-01  0.297E-19  0.754E-02  0.754E-02
 -22.204  0.155E-01  0.289E-19  0.773E-02  0.773E-02
 -22.194  0.158E-01  0.279E-19  0.792E-02  0.792E-02
 -22.184  0.162E-01  0.269E-19  0.810E-02  0.810E-02
 -22.174  0.166E-01  0.259E-19  0.828E-02  0.828E-02
 -22.164  0.169E-01  0.248E-19  0.846E-02  0.846E-02
 -22.154  0.173E-01  0.236E-19  0.864E-02  0.864E-02
 -22.144  0.176E-01  0.224E-19  0.881E-02  0.881E-02
 -22.134  0.180E-01  0.212E-19  0.899E-02  0.899E-02
 -22.124  0.183E-01  0.199E-19  0.916E-02  0.916E-02
 -22.114  0.187E-01  0.187E-19  0.934E-02  0.934E-02
 -22.104  0.190E-01  0.175E-19  0.951E-02  0.951E-02
 -22.094  0.194E-01  0.164E-19  0.969E-02  0.969E-02
 -22.084  0.197E-01  0.153E-19  0.986E-02  0.986E-02
 -22.074  0.201E-01  0.142E-19  0.100E-01  0.100E-01
 -22.064  0.204E-01  0.132E-19  0.102E-01  0.102E-01
 -22.054  0.208E-01  0.124E-19  0.104E-01  0.104E-01
 -22.044  0.211E-01  0.116E-19  0.106E-01  0.106E-01
 -22.034  0.215E-01  0.109E-19  0.107E-01  0.107E-01
 -22.024  0.218E-01  0.102E-19  0.109E-01  0.109E-01
 -22.014  0.221E-01  0.974E-20  0.111E-01  0.111E-01
 -22.004  0.224E-01  0.933E-20  0.112E-01  0.112E-01
 -21.994  0.227E-01  0.902E-20  0.113E-01  0.113E-01
 -21.984  0.230E-01  0.880E-20  0.115E-01  0.115E-01
 -21.974  0.232E-01  0.867E-20  0.116E-01  0.116E-01
 -21.964  0.235E-01  0.861E-20  0.117E-01  0.117E-01
 -21.954  0.237E-01  0.864E-20  0.119E-01  0.119E-01
 -21.944  0.240E-01  0.873E-20  0.120E-01  0.120E-01
 -21.934  0.243E-01  0.887E-20  0.121E-01  0.121E-01
 -21.924  0.245E-01  0.906E-20  0.123E-01  0.123E-01
 -21.914  0.248E-01  0.929E-20  0.124E-01  0.124E-01
 -21.904  0.251E-01  0.954E-20  0.126E-01  0.126E-01
 -21.894  0.255E-01  0.980E-20  0.127E-01  0.127E-01
 -21.884  0.258E-01  0.101E-19  0.129E-01  0.129E-01
 -21.874  0.262E-01  0.103E-19  0.131E-01  0.131E-01
 -21.864  0.265E-01  0.105E-19  0.133E-01  0.133E-01
 -21.854  0.269E-01  0.107E-19  0.134E-01  0.134E-01
 -21.844  0.272E-01  0.109E-19  0.136E-01  0.136E-01
 -21.834  0.276E-01  0.110E-19  0.138E-01  0.138E-01
 -21.824  0.279E-01  0.110E-19  0.139E-01  0.139E-01
 -21.814  0.282E-01  0.110E-19  0.141E-01  0.141E-01
 -21.804  0.285E-01  0.110E-19  0.142E-01  0.142E-01
 -21.794  0.287E-01  0.109E-19  0.143E-01  0.143E-01
 -21.784  0.289E-01  0.107E-19  0.144E-01  0.144E-01
 -21.774  0.290E-01  0.105E-19  0.145E-01  0.145E-01
 -21.764  0.292E-01  0.103E-19  0.146E-01  0.146E-01
 -21.754  0.293E-01  0.101E-19  0.146E-01  0.146E-01
 -21.744  0.294E-01  0.984E-20  0.147E-01  0.147E-01
 -21.734  0.295E-01  0.961E-20  0.148E-01  0.148E-01
 -21.724  0.297E-01  0.940E-20  0.148E-01  0.148E-01
 -21.714  0.298E-01  0.923E-20  0.149E-01  0.149E-01
 -21.704  0.300E-01  0.911E-20  0.150E-01  0.150E-01
 -21.694  0.302E-01  0.903E-20  0.151E-01  0.151E-01
 -21.684  0.305E-01  0.900E-20  0.152E-01  0.152E-01
 -21.674  0.308E-01  0.903E-20  0.154E-01  0.154E-01
 -21.664  0.312E-01  0.912E-20  0.156E-01  0.156E-01
 -21.654  0.316E-01  0.925E-20  0.158E-01  0.158E-01
 -21.644  0.320E-01  0.943E-20  0.160E-01  0.160E-01
 -21.634  0.325E-01  0.965E-20  0.162E-01  0.162E-01
 -21.624  0.329E-01  0.988E-20  0.165E-01  0.165E-01
 -21.614  0.333E-01  0.101E-19  0.167E-01  0.167E-01
 -21.604  0.338E-01  0.104E-19  0.169E-01  0.169E-01
 -21.594  0.341E-01  0.106E-19  0.171E-01  0.171E-01
 -21.584  0.344E-01  0.108E-19  0.172E-01  0.172E-01
 -21.574  0.347E-01  0.110E-19  0.173E-01  0.173E-01
 -21.564  0.348E-01  0.112E-19  0.174E-01  0.174E-01
 -21.554  0.350E-01  0.113E-19  0.175E-01  0.175E-01
 -21.544  0.350E-01  0.113E-19  0.175E-01  0.175E-01
 -21.534  0.350E-01  0.113E-19  0.175E-01  0.175E-01
 -21.524  0.349E-01  0.112E-19  0.175E-01  0.175E-01
 -21.514  0.349E-01  0.111E-19  0.174E-01  0.174E-01
 -21.504  0.348E-01  0.110E-19  0.174E-01  0.174E-01
 -21.494  0.347E-01  0.108E-19  0.173E-01  0.173E-01
 -21.484  0.346E-01  0.106E-19  0.173E-01  0.173E-01
 -21.474  0.346E-01  0.103E-19  0.173E-01  0.173E-01
 -21.464  0.347E-01  0.101E-19  0.173E-01  0.173E-01
 -21.454  0.348E-01  0.980E-20  0.174E-01  0.174E-01
 -21.444  0.350E-01  0.954E-20  0.175E-01  0.175E-01
 -21.434  0.353E-01  0.930E-20  0.176E-01  0.176E-01
 -21.424  0.357E-01  0.906E-20  0.178E-01  0.178E-01
 -21.414  0.361E-01  0.886E-20  0.181E-01  0.181E-01
 -21.404  0.366E-01  0.868E-20  0.183E-01  0.183E-01
 -21.394  0.372E-01  0.853E-20  0.186E-01  0.186E-01
 -21.384  0.378E-01  0.842E-20  0.189E-01  0.189E-01
 -21.374  0.384E-01  0.834E-20  0.192E-01  0.192E-01
 -21.364  0.390E-01  0.831E-20  0.195E-01  0.195E-01
 -21.354  0.396E-01  0.831E-20  0.198E-01  0.198E-01
 -21.344  0.401E-01  0.836E-20  0.200E-01  0.200E-01
 -21.334  0.405E-01  0.844E-20  0.202E-01  0.202E-01
 -21.324  0.408E-01  0.856E-20  0.204E-01  0.204E-01
 -21.314  0.410E-01  0.873E-20  0.205E-01  0.205E-01
 -21.304  0.412E-01  0.893E-20  0.206E-01  0.206E-01
 -21.294  0.412E-01  0.918E-20  0.206E-01  0.206E-01
 -21.284  0.411E-01  0.947E-20  0.205E-01  0.205E-01
 -21.274  0.409E-01  0.980E-20  0.204E-01  0.204E-01
 -21.264  0.406E-01  0.102E-19  0.203E-01  0.203E-01
 -21.254  0.403E-01  0.106E-19  0.201E-01  0.201E-01
 -21.244  0.399E-01  0.110E-19  0.200E-01  0.200E-01
 -21.234  0.396E-01  0.115E-19  0.198E-01  0.198E-01
 -21.224  0.393E-01  0.120E-19  0.196E-01  0.196E-01
 -21.214  0.390E-01  0.126E-19  0.195E-01  0.195E-01
 -21.204  0.388E-01  0.131E-19  0.194E-01  0.194E-01
 -21.194  0.387E-01  0.137E-19  0.194E-01  0.194E-01
 -21.184  0.387E-01  0.143E-19  0.194E-01  0.194E-01
 -21.174  0.389E-01  0.148E-19  0.194E-01  0.194E-01
 -21.164  0.392E-01  0.153E-19  0.196E-01  0.196E-01
 -21.154  0.396E-01  0.157E-19  0.198E-01  0.198E-01
 -21.144  0.401E-01  0.161E-19  0.201E-01  0.201E-01
 -21.134  0.407E-01  0.164E-19  0.204E-01  0.204E-01
 -21.124  0.414E-01  0.166E-19  0.207E-01  0.207E-01
 -21.114  0.422E-01  0.168E-19  0.211E-01  0.211E-01
 -21.104  0.430E-01  0.168E-19  0.215E-01  0.215E-01
 -21.094  0.438E-01  0.167E-19  0.219E-01  0.219E-01
 -21.084  0.446E-01  0.165E-19  0.223E-01  0.223E-01
 -21.074  0.454E-01  0.162E-19  0.227E-01  0.227E-01
 -21.064  0.460E-01  0.158E-19  0.230E-01  0.230E-01
 -21.054  0.466E-01  0.154E-19  0.233E-01  0.233E-01
 -21.044  0.470E-01  0.149E-19  0.235E-01  0.235E-01
 -21.034  0.473E-01  0.144E-19  0.236E-01  0.236E-01
 -21.024  0.474E-01  0.138E-19  0.237E-01  0.237E-01
 -21.014  0.474E-01  0.133E-19  0.237E-01  0.237E-01
 -21.004  0.473E-01  0.128E-19  0.236E-01  0.236E-01
 -20.994  0.470E-01  0.123E-19  0.235E-01  0.235E-01
 -20.984  0.466E-01  0.118E-19  0.233E-01  0.233E-01
 -20.974  0.461E-01  0.115E-19  0.231E-01  0.231E-01
 -20.964  0.456E-01  0.112E-19  0.228E-01  0.228E-01
 -20.954  0.450E-01  0.110E-19  0.225E-01  0.225E-01
 -20.944  0.444E-01  0.110E-19  0.222E-01  0.222E-01
 -20.934  0.438E-01  0.110E-19  0.219E-01  0.219E-01
 -20.924  0.432E-01  0.111E-19  0.216E-01  0.216E-01
 -20.914  0.428E-01  0.113E-19  0.214E-01  0.214E-01
 -20.904  0.424E-01  0.116E-19  0.212E-01  0.212E-01
 -20.894  0.422E-01  0.120E-19  0.211E-01  0.211E-01
 -20.884  0.421E-01  0.125E-19  0.211E-01  0.211E-01
 -20.874  0.422E-01  0.130E-19  0.211E-01  0.211E-01
 -20.864  0.425E-01  0.136E-19  0.212E-01  0.212E-01
 -20.854  0.429E-01  0.143E-19  0.214E-01  0.214E-01
 -20.844  0.435E-01  0.149E-19  0.217E-01  0.217E-01
 -20.834  0.442E-01  0.155E-19  0.221E-01  0.221E-01
 -20.824  0.451E-01  0.162E-19  0.226E-01  0.226E-01
 -20.814  0.461E-01  0.167E-19  0.230E-01  0.230E-01
 -20.804  0.472E-01  0.172E-19  0.236E-01  0.236E-01
 -20.794  0.482E-01  0.177E-19  0.241E-01  0.241E-01
 -20.784  0.493E-01  0.180E-19  0.247E-01  0.247E-01
 -20.774  0.503E-01  0.182E-19  0.252E-01  0.252E-01
 -20.764  0.513E-01  0.182E-19  0.256E-01  0.256E-01
 -20.754  0.521E-01  0.181E-19  0.261E-01  0.261E-01
 -20.744  0.528E-01  0.179E-19  0.264E-01  0.264E-01
 -20.734  0.533E-01  0.175E-19  0.267E-01  0.267E-01
 -20.724  0.537E-01  0.170E-19  0.268E-01  0.268E-01
 -20.714  0.538E-01  0.163E-19  0.269E-01  0.269E-01
 -20.704  0.537E-01  0.156E-19  0.269E-01  0.269E-01
 -20.694  0.535E-01  0.147E-19  0.268E-01  0.268E-01
 -20.684  0.531E-01  0.138E-19  0.265E-01  0.265E-01
 -20.674  0.525E-01  0.128E-19  0.263E-01  0.263E-01
 -20.664  0.519E-01  0.118E-19  0.259E-01  0.259E-01
 -20.654  0.511E-01  0.108E-19  0.256E-01  0.256E-01
 -20.644  0.503E-01  0.976E-20  0.251E-01  0.251E-01
 -20.634  0.494E-01  0.881E-20  0.247E-01  0.247E-01
 -20.624  0.486E-01  0.791E-20  0.243E-01  0.243E-01
 -20.614  0.478E-01  0.709E-20  0.239E-01  0.239E-01
 -20.604  0.471E-01  0.636E-20  0.235E-01  0.235E-01
 -20.594  0.464E-01  0.573E-20  0.232E-01  0.232E-01
 -20.584  0.459E-01  0.520E-20  0.230E-01  0.230E-01
 -20.574  0.456E-01  0.479E-20  0.228E-01  0.228E-01
 -20.564  0.453E-01  0.449E-20  0.227E-01  0.227E-01
 -20.554  0.453E-01  0.431E-20  0.226E-01  0.226E-01
 -20.544  0.454E-01  0.425E-20  0.227E-01  0.227E-01
 -20.534  0.457E-01  0.430E-20  0.228E-01  0.228E-01
 -20.524  0.462E-01  0.447E-20  0.231E-01  0.231E-01
 -20.514  0.468E-01  0.475E-20  0.234E-01  0.234E-01
 -20.504  0.476E-01  0.514E-20  0.238E-01  0.238E-01
 -20.494  0.486E-01  0.563E-20  0.243E-01  0.243E-01
 -20.484  0.497E-01  0.621E-20  0.248E-01  0.248E-01
 -20.474  0.508E-01  0.688E-20  0.254E-01  0.254E-01
 -20.464  0.521E-01  0.764E-20  0.260E-01  0.260E-01
 -20.454  0.534E-01  0.846E-20  0.267E-01  0.267E-01
 -20.444  0.547E-01  0.934E-20  0.273E-01  0.273E-01
 -20.434  0.559E-01  0.103E-19  0.279E-01  0.279E-01
 -20.424  0.570E-01  0.113E-19  0.285E-01  0.285E-01
 -20.414  0.581E-01  0.123E-19  0.290E-01  0.290E-01
 -20.404  0.589E-01  0.133E-19  0.295E-01  0.295E-01
 -20.394  0.596E-01  0.144E-19  0.298E-01  0.298E-01
 -20.384  0.600E-01  0.154E-19  0.300E-01  0.300E-01
 -20.374  0.603E-01  0.165E-19  0.301E-01  0.301E-01
 -20.364  0.603E-01  0.176E-19  0.301E-01  0.301E-01
 -20.354  0.600E-01  0.187E-19  0.300E-01  0.300E-01
 -20.344  0.595E-01  0.199E-19  0.298E-01  0.298E-01
 -20.334  0.588E-01  0.210E-19  0.294E-01  0.294E-01
 -20.324  0.580E-01  0.222E-19  0.290E-01  0.290E-01
 -20.314  0.569E-01  0.234E-19  0.285E-01  0.285E-01
 -20.304  0.558E-01  0.247E-19  0.279E-01  0.279E-01
 -20.294  0.546E-01  0.260E-19  0.273E-01  0.273E-01
 -20.284  0.534E-01  0.274E-19  0.267E-01  0.267E-01
 -20.274  0.523E-01  0.287E-19  0.261E-01  0.261E-01
 -20.264  0.511E-01  0.301E-19  0.256E-01  0.256E-01
 -20.254  0.501E-01  0.315E-19  0.251E-01  0.251E-01
 -20.244  0.493E-01  0.329E-19  0.246E-01  0.246E-01
 -20.234  0.486E-01  0.342E-19  0.243E-01  0.243E-01
 -20.224  0.480E-01  0.354E-19  0.240E-01  0.240E-01
 -20.214  0.477E-01  0.366E-19  0.239E-01  0.239E-01
 -20.204  0.476E-01  0.376E-19  0.238E-01  0.238E-01
 -20.194  0.478E-01  0.385E-19  0.239E-01  0.239E-01
 -20.184  0.481E-01  0.392E-19  0.241E-01  0.241E-01
 -20.174  0.487E-01  0.397E-19  0.243E-01  0.243E-01
 -20.164  0.494E-01  0.401E-19  0.247E-01  0.247E-01
 -20.154  0.503E-01  0.403E-19  0.252E-01  0.252E-01
 -20.144  0.514E-01  0.403E-19  0.257E-01  0.257E-01
 -20.134  0.526E-01  0.402E-19  0.263E-01  0.263E-01
 -20.124  0.539E-01  0.400E-19  0.269E-01  0.269E-01
 -20.114  0.552E-01  0.398E-19  0.276E-01  0.276E-01
 -20.104  0.566E-01  0.395E-19  0.283E-01  0.283E-01
 -20.094  0.580E-01  0.393E-19  0.290E-01  0.290E-01
 -20.084  0.593E-01  0.392E-19  0.297E-01  0.297E-01
 -20.074  0.606E-01  0.391E-19  0.303E-01  0.303E-01
 -20.064  0.618E-01  0.393E-19  0.309E-01  0.309E-01
 -20.054  0.629E-01  0.396E-19  0.314E-01  0.314E-01
 -20.044  0.638E-01  0.401E-19  0.319E-01  0.319E-01
 -20.034  0.646E-01  0.408E-19  0.323E-01  0.323E-01
 -20.024  0.652E-01  0.417E-19  0.326E-01  0.326E-01
 -20.014  0.656E-01  0.428E-19  0.328E-01  0.328E-01
 -20.004  0.658E-01  0.441E-19  0.329E-01  0.329E-01
 -19.994  0.658E-01  0.454E-19  0.329E-01  0.329E-01
 -19.984  0.655E-01  0.469E-19  0.328E-01  0.328E-01
 -19.974  0.651E-01  0.484E-19  0.325E-01  0.325E-01
 -19.964  0.645E-01  0.499E-19  0.322E-01  0.322E-01
 -19.954  0.636E-01  0.513E-19  0.318E-01  0.318E-01
 -19.944  0.626E-01  0.526E-19  0.313E-01  0.313E-01
 -19.934  0.615E-01  0.538E-19  0.308E-01  0.308E-01
 -19.924  0.603E-01  0.549E-19  0.301E-01  0.301E-01
 -19.914  0.589E-01  0.557E-19  0.295E-01  0.295E-01
 -19.904  0.575E-01  0.564E-19  0.288E-01  0.288E-01
 -19.894  0.561E-01  0.569E-19  0.281E-01  0.281E-01
 -19.884  0.548E-01  0.572E-19  0.274E-01  0.274E-01
 -19.874  0.535E-01  0.573E-19  0.267E-01  0.267E-01
 -19.864  0.523E-01  0.573E-19  0.262E-01  0.262E-01
 -19.854  0.513E-01  0.571E-19  0.257E-01  0.257E-01
 -19.844  0.505E-01  0.569E-19  0.252E-01  0.252E-01
 -19.834  0.499E-01  0.567E-19  0.249E-01  0.249E-01
 -19.824  0.495E-01  0.564E-19  0.247E-01  0.247E-01
 -19.814  0.494E-01  0.561E-19  0.247E-01  0.247E-01
 -19.804  0.496E-01  0.558E-19  0.248E-01  0.248E-01
 -19.794  0.500E-01  0.556E-19  0.250E-01  0.250E-01
 -19.784  0.508E-01  0.555E-19  0.254E-01  0.254E-01
 -19.774  0.518E-01  0.554E-19  0.259E-01  0.259E-01
 -19.764  0.530E-01  0.554E-19  0.265E-01  0.265E-01
 -19.754  0.545E-01  0.554E-19  0.272E-01  0.272E-01
 -19.744  0.561E-01  0.554E-19  0.280E-01  0.280E-01
 -19.734  0.578E-01  0.554E-19  0.289E-01  0.289E-01
 -19.724  0.597E-01  0.554E-19  0.298E-01  0.298E-01
 -19.714  0.615E-01  0.552E-19  0.308E-01  0.308E-01
 -19.704  0.633E-01  0.550E-19  0.317E-01  0.317E-01
 -19.694  0.650E-01  0.545E-19  0.325E-01  0.325E-01
 -19.684  0.666E-01  0.539E-19  0.333E-01  0.333E-01
 -19.674  0.681E-01  0.531E-19  0.340E-01  0.340E-01
 -19.664  0.693E-01  0.520E-19  0.346E-01  0.346E-01
 -19.654  0.702E-01  0.507E-19  0.351E-01  0.351E-01
 -19.644  0.709E-01  0.491E-19  0.355E-01  0.355E-01
 -19.634  0.714E-01  0.474E-19  0.357E-01  0.357E-01
 -19.624  0.716E-01  0.454E-19  0.358E-01  0.358E-01
 -19.614  0.715E-01  0.433E-19  0.358E-01  0.358E-01
 -19.604  0.712E-01  0.410E-19  0.356E-01  0.356E-01
 -19.594  0.708E-01  0.387E-19  0.354E-01  0.354E-01
 -19.584  0.701E-01  0.364E-19  0.350E-01  0.350E-01
 -19.574  0.693E-01  0.340E-19  0.346E-01  0.346E-01
 -19.564  0.683E-01  0.318E-19  0.342E-01  0.342E-01
 -19.554  0.673E-01  0.296E-19  0.336E-01  0.336E-01
 -19.544  0.662E-01  0.276E-19  0.331E-01  0.331E-01
 -19.534  0.650E-01  0.257E-19  0.325E-01  0.325E-01
 -19.524  0.638E-01  0.241E-19  0.319E-01  0.319E-01
 -19.514  0.626E-01  0.226E-19  0.313E-01  0.313E-01
 -19.504  0.614E-01  0.214E-19  0.307E-01  0.307E-01
 -19.494  0.602E-01  0.203E-19  0.301E-01  0.301E-01
 -19.484  0.590E-01  0.195E-19  0.295E-01  0.295E-01
 -19.474  0.579E-01  0.189E-19  0.289E-01  0.289E-01
 -19.464  0.568E-01  0.184E-19  0.284E-01  0.284E-01
 -19.454  0.558E-01  0.181E-19  0.279E-01  0.279E-01
 -19.444  0.549E-01  0.179E-19  0.274E-01  0.274E-01
 -19.434  0.541E-01  0.179E-19  0.270E-01  0.270E-01
 -19.424  0.534E-01  0.180E-19  0.267E-01  0.267E-01
 -19.414  0.529E-01  0.181E-19  0.264E-01  0.264E-01
 -19.404  0.526E-01  0.184E-19  0.263E-01  0.263E-01
 -19.394  0.525E-01  0.186E-19  0.262E-01  0.262E-01
 -19.384  0.526E-01  0.190E-19  0.263E-01  0.263E-01
 -19.374  0.531E-01  0.193E-19  0.265E-01  0.265E-01
 -19.364  0.537E-01  0.197E-19  0.269E-01  0.269E-01
 -19.354  0.547E-01  0.201E-19  0.273E-01  0.273E-01
 -19.344  0.559E-01  0.204E-19  0.279E-01  0.279E-01
 -19.334  0.574E-01  0.208E-19  0.287E-01  0.287E-01
 -19.324  0.591E-01  0.211E-19  0.295E-01  0.295E-01
 -19.314  0.609E-01  0.215E-19  0.305E-01  0.305E-01
 -19.304  0.630E-01  0.217E-19  0.315E-01  0.315E-01
 -19.294  0.651E-01  0.220E-19  0.326E-01  0.326E-01
 -19.284  0.673E-01  0.222E-19  0.337E-01  0.337E-01
 -19.274  0.695E-01  0.223E-19  0.347E-01  0.347E-01
 -19.264  0.715E-01  0.224E-19  0.358E-01  0.358E-01
 -19.254  0.735E-01  0.225E-19  0.367E-01  0.367E-01
 -19.244  0.752E-01  0.225E-19  0.376E-01  0.376E-01
 -19.234  0.766E-01  0.225E-19  0.383E-01  0.383E-01
 -19.224  0.778E-01  0.224E-19  0.389E-01  0.389E-01
 -19.214  0.786E-01  0.224E-19  0.393E-01  0.393E-01
 -19.204  0.790E-01  0.224E-19  0.395E-01  0.395E-01
 -19.194  0.791E-01  0.224E-19  0.396E-01  0.396E-01
 -19.184  0.788E-01  0.225E-19  0.394E-01  0.394E-01
 -19.174  0.782E-01  0.228E-19  0.391E-01  0.391E-01
 -19.164  0.772E-01  0.232E-19  0.386E-01  0.386E-01
 -19.154  0.760E-01  0.237E-19  0.380E-01  0.380E-01
 -19.144  0.746E-01  0.245E-19  0.373E-01  0.373E-01
 -19.134  0.729E-01  0.256E-19  0.365E-01  0.365E-01
 -19.124  0.712E-01  0.269E-19  0.356E-01  0.356E-01
 -19.114  0.694E-01  0.285E-19  0.347E-01  0.347E-01
 -19.104  0.676E-01  0.303E-19  0.338E-01  0.338E-01
 -19.094  0.659E-01  0.324E-19  0.330E-01  0.330E-01
 -19.084  0.643E-01  0.348E-19  0.321E-01  0.321E-01
 -19.074  0.627E-01  0.373E-19  0.314E-01  0.314E-01
 -19.064  0.613E-01  0.400E-19  0.307E-01  0.307E-01
 -19.054  0.601E-01  0.428E-19  0.301E-01  0.301E-01
 -19.044  0.591E-01  0.455E-19  0.295E-01  0.295E-01
 -19.034  0.582E-01  0.482E-19  0.291E-01  0.291E-01
 -19.024  0.574E-01  0.507E-19  0.287E-01  0.287E-01
 -19.014  0.569E-01  0.530E-19  0.284E-01  0.284E-01
 -19.004  0.565E-01  0.550E-19  0.282E-01  0.282E-01
 -18.994  0.562E-01  0.566E-19  0.281E-01  0.281E-01
 -18.984  0.561E-01  0.577E-19  0.281E-01  0.281E-01
 -18.974  0.561E-01  0.584E-19  0.281E-01  0.281E-01
 -18.964  0.563E-01  0.586E-19  0.282E-01  0.282E-01
 -18.954  0.566E-01  0.582E-19  0.283E-01  0.283E-01
 -18.944  0.571E-01  0.574E-19  0.285E-01  0.285E-01
 -18.934  0.577E-01  0.560E-19  0.289E-01  0.289E-01
 -18.924  0.585E-01  0.543E-19  0.292E-01  0.292E-01
 -18.914  0.594E-01  0.521E-19  0.297E-01  0.297E-01
 -18.904  0.606E-01  0.497E-19  0.303E-01  0.303E-01
 -18.894  0.618E-01  0.469E-19  0.309E-01  0.309E-01
 -18.884  0.633E-01  0.440E-19  0.316E-01  0.316E-01
 -18.874  0.648E-01  0.410E-19  0.324E-01  0.324E-01
 -18.864  0.665E-01  0.380E-19  0.333E-01  0.333E-01
 -18.854  0.683E-01  0.350E-19  0.342E-01  0.342E-01
 -18.844  0.702E-01  0.321E-19  0.351E-01  0.351E-01
 -18.834  0.721E-01  0.293E-19  0.360E-01  0.360E-01
 -18.824  0.739E-01  0.267E-19  0.370E-01  0.370E-01
 -18.814  0.758E-01  0.243E-19  0.379E-01  0.379E-01
 -18.804  0.775E-01  0.221E-19  0.388E-01  0.388E-01
 -18.794  0.791E-01  0.202E-19  0.396E-01  0.396E-01
 -18.784  0.806E-01  0.185E-19  0.403E-01  0.403E-01
 -18.774  0.818E-01  0.170E-19  0.409E-01  0.409E-01
 -18.764  0.828E-01  0.158E-19  0.414E-01  0.414E-01
 -18.754  0.835E-01  0.148E-19  0.418E-01  0.418E-01
 -18.744  0.839E-01  0.140E-19  0.420E-01  0.420E-01
 -18.734  0.840E-01  0.133E-19  0.420E-01  0.420E-01
 -18.724  0.838E-01  0.128E-19  0.419E-01  0.419E-01
 -18.714  0.833E-01  0.124E-19  0.417E-01  0.417E-01
 -18.704  0.825E-01  0.121E-19  0.412E-01  0.412E-01
 -18.694  0.814E-01  0.119E-19  0.407E-01  0.407E-01
 -18.684  0.800E-01  0.118E-19  0.400E-01  0.400E-01
 -18.674  0.783E-01  0.117E-19  0.392E-01  0.392E-01
 -18.664  0.765E-01  0.116E-19  0.383E-01  0.383E-01
 -18.654  0.745E-01  0.115E-19  0.373E-01  0.373E-01
 -18.644  0.724E-01  0.114E-19  0.362E-01  0.362E-01
 -18.634  0.702E-01  0.113E-19  0.351E-01  0.351E-01
 -18.624  0.681E-01  0.112E-19  0.340E-01  0.340E-01
 -18.614  0.659E-01  0.111E-19  0.330E-01  0.330E-01
 -18.604  0.639E-01  0.109E-19  0.319E-01  0.319E-01
 -18.594  0.620E-01  0.108E-19  0.310E-01  0.310E-01
 -18.584  0.603E-01  0.106E-19  0.302E-01  0.302E-01
 -18.574  0.588E-01  0.103E-19  0.294E-01  0.294E-01
 -18.564  0.576E-01  0.101E-19  0.288E-01  0.288E-01
 -18.554  0.567E-01  0.988E-20  0.283E-01  0.283E-01
 -18.544  0.560E-01  0.962E-20  0.280E-01  0.280E-01
 -18.534  0.557E-01  0.937E-20  0.278E-01  0.278E-01
 -18.524  0.556E-01  0.910E-20  0.278E-01  0.278E-01
 -18.514  0.559E-01  0.883E-20  0.279E-01  0.279E-01
 -18.504  0.564E-01  0.855E-20  0.282E-01  0.282E-01
 -18.494  0.572E-01  0.827E-20  0.286E-01  0.286E-01
 -18.484  0.582E-01  0.799E-20  0.291E-01  0.291E-01
 -18.474  0.594E-01  0.771E-20  0.297E-01  0.297E-01
 -18.464  0.608E-01  0.742E-20  0.304E-01  0.304E-01
 -18.454  0.624E-01  0.713E-20  0.312E-01  0.312E-01
 -18.444  0.642E-01  0.685E-20  0.321E-01  0.321E-01
 -18.434  0.661E-01  0.657E-20  0.330E-01  0.330E-01
 -18.424  0.680E-01  0.630E-20  0.340E-01  0.340E-01
 -18.414  0.700E-01  0.604E-20  0.350E-01  0.350E-01
 -18.404  0.720E-01  0.579E-20  0.360E-01  0.360E-01
 -18.394  0.740E-01  0.556E-20  0.370E-01  0.370E-01
 -18.384  0.760E-01  0.535E-20  0.380E-01  0.380E-01
 -18.374  0.779E-01  0.517E-20  0.389E-01  0.389E-01
 -18.364  0.796E-01  0.501E-20  0.398E-01  0.398E-01
 -18.354  0.812E-01  0.488E-20  0.406E-01  0.406E-01
 -18.344  0.826E-01  0.477E-20  0.413E-01  0.413E-01
 -18.334  0.839E-01  0.470E-20  0.419E-01  0.419E-01
 -18.324  0.849E-01  0.466E-20  0.424E-01  0.424E-01
 -18.314  0.856E-01  0.464E-20  0.428E-01  0.428E-01
 -18.304  0.862E-01  0.465E-20  0.431E-01  0.431E-01
 -18.294  0.865E-01  0.469E-20  0.432E-01  0.432E-01
 -18.284  0.865E-01  0.475E-20  0.433E-01  0.433E-01
 -18.274  0.864E-01  0.483E-20  0.432E-01  0.432E-01
 -18.264  0.861E-01  0.492E-20  0.431E-01  0.431E-01
 -18.254  0.856E-01  0.503E-20  0.428E-01  0.428E-01
 -18.244  0.850E-01  0.515E-20  0.425E-01  0.425E-01
 -18.234  0.843E-01  0.528E-20  0.421E-01  0.421E-01
 -18.224  0.834E-01  0.541E-20  0.417E-01  0.417E-01
 -18.214  0.825E-01  0.553E-20  0.412E-01  0.412E-01
 -18.204  0.814E-01  0.565E-20  0.407E-01  0.407E-01
 -18.194  0.803E-01  0.575E-20  0.402E-01  0.402E-01
 -18.184  0.791E-01  0.584E-20  0.396E-01  0.396E-01
 -18.174  0.779E-01  0.591E-20  0.389E-01  0.389E-01
 -18.164  0.765E-01  0.595E-20  0.383E-01  0.383E-01
 -18.154  0.751E-01  0.597E-20  0.375E-01  0.375E-01
 -18.144  0.736E-01  0.596E-20  0.368E-01  0.368E-01
 -18.134  0.720E-01  0.591E-20  0.360E-01  0.360E-01
 -18.124  0.703E-01  0.584E-20  0.351E-01  0.351E-01
 -18.114  0.686E-01  0.573E-20  0.343E-01  0.343E-01
 -18.104  0.668E-01  0.560E-20  0.334E-01  0.334E-01
 -18.094  0.651E-01  0.544E-20  0.326E-01  0.326E-01
 -18.084  0.634E-01  0.526E-20  0.317E-01  0.317E-01
 -18.074  0.618E-01  0.506E-20  0.309E-01  0.309E-01
 -18.064  0.604E-01  0.485E-20  0.302E-01  0.302E-01
 -18.054  0.591E-01  0.463E-20  0.295E-01  0.295E-01
 -18.044  0.580E-01  0.441E-20  0.290E-01  0.290E-01
 -18.034  0.573E-01  0.421E-20  0.286E-01  0.286E-01
 -18.024  0.568E-01  0.401E-20  0.284E-01  0.284E-01
 -18.014  0.567E-01  0.384E-20  0.284E-01  0.284E-01
 -18.004  0.570E-01  0.370E-20  0.285E-01  0.285E-01
 -17.994  0.577E-01  0.359E-20  0.288E-01  0.288E-01
 -17.984  0.587E-01  0.350E-20  0.294E-01  0.294E-01
 -17.974  0.602E-01  0.346E-20  0.301E-01  0.301E-01
 -17.964  0.620E-01  0.345E-20  0.310E-01  0.310E-01
 -17.954  0.641E-01  0.347E-20  0.320E-01  0.320E-01
 -17.944  0.665E-01  0.352E-20  0.332E-01  0.332E-01
 -17.934  0.691E-01  0.360E-20  0.345E-01  0.345E-01
 -17.924  0.719E-01  0.370E-20  0.359E-01  0.359E-01
 -17.914  0.747E-01  0.382E-20  0.374E-01  0.374E-01
 -17.904  0.777E-01  0.395E-20  0.388E-01  0.388E-01
 -17.894  0.805E-01  0.408E-20  0.403E-01  0.403E-01
 -17.884  0.833E-01  0.420E-20  0.417E-01  0.417E-01
 -17.874  0.859E-01  0.432E-20  0.430E-01  0.430E-01
 -17.864  0.883E-01  0.443E-20  0.441E-01  0.441E-01
 -17.854  0.904E-01  0.452E-20  0.452E-01  0.452E-01
 -17.844  0.921E-01  0.459E-20  0.461E-01  0.461E-01
 -17.834  0.935E-01  0.463E-20  0.468E-01  0.468E-01
 -17.824  0.945E-01  0.465E-20  0.473E-01  0.473E-01
 -17.814  0.951E-01  0.465E-20  0.476E-01  0.476E-01
 -17.804  0.953E-01  0.463E-20  0.477E-01  0.477E-01
 -17.794  0.951E-01  0.458E-20  0.476E-01  0.476E-01
 -17.784  0.945E-01  0.452E-20  0.473E-01  0.473E-01
 -17.774  0.936E-01  0.443E-20  0.468E-01  0.468E-01
 -17.764  0.923E-01  0.433E-20  0.462E-01  0.462E-01
 -17.754  0.908E-01  0.422E-20  0.454E-01  0.454E-01
 -17.744  0.891E-01  0.410E-20  0.446E-01  0.446E-01
 -17.734  0.873E-01  0.397E-20  0.436E-01  0.436E-01
 -17.724  0.854E-01  0.384E-20  0.427E-01  0.427E-01
 -17.714  0.834E-01  0.369E-20  0.417E-01  0.417E-01
 -17.704  0.815E-01  0.355E-20  0.408E-01  0.408E-01
 -17.694  0.797E-01  0.340E-20  0.398E-01  0.398E-01
 -17.684  0.780E-01  0.325E-20  0.390E-01  0.390E-01
 -17.674  0.764E-01  0.309E-20  0.382E-01  0.382E-01
 -17.664  0.750E-01  0.294E-20  0.375E-01  0.375E-01
 -17.654  0.737E-01  0.279E-20  0.368E-01  0.368E-01
 -17.644  0.726E-01  0.263E-20  0.363E-01  0.363E-01
 -17.634  0.716E-01  0.248E-20  0.358E-01  0.358E-01
 -17.624  0.708E-01  0.233E-20  0.354E-01  0.354E-01
 -17.614  0.701E-01  0.218E-20  0.350E-01  0.350E-01
 -17.604  0.694E-01  0.204E-20  0.347E-01  0.347E-01
 -17.594  0.688E-01  0.191E-20  0.344E-01  0.344E-01
 -17.584  0.682E-01  0.178E-20  0.341E-01  0.341E-01
 -17.574  0.676E-01  0.167E-20  0.338E-01  0.338E-01
 -17.564  0.670E-01  0.157E-20  0.335E-01  0.335E-01
 -17.554  0.663E-01  0.148E-20  0.332E-01  0.332E-01
 -17.544  0.657E-01  0.141E-20  0.328E-01  0.328E-01
 -17.534  0.650E-01  0.136E-20  0.325E-01  0.325E-01
 -17.524  0.644E-01  0.133E-20  0.322E-01  0.322E-01
 -17.514  0.638E-01  0.131E-20  0.319E-01  0.319E-01
 -17.504  0.634E-01  0.132E-20  0.317E-01  0.317E-01
 -17.494  0.631E-01  0.135E-20  0.315E-01  0.315E-01
 -17.484  0.630E-01  0.140E-20  0.315E-01  0.315E-01
 -17.474  0.633E-01  0.147E-20  0.316E-01  0.316E-01
 -17.464  0.638E-01  0.156E-20  0.319E-01  0.319E-01
 -17.454  0.646E-01  0.167E-20  0.323E-01  0.323E-01
 -17.444  0.659E-01  0.180E-20  0.329E-01  0.329E-01
 -17.434  0.675E-01  0.194E-20  0.337E-01  0.337E-01
 -17.424  0.694E-01  0.209E-20  0.347E-01  0.347E-01
 -17.414  0.717E-01  0.226E-20  0.358E-01  0.358E-01
 -17.404  0.742E-01  0.243E-20  0.371E-01  0.371E-01
 -17.394  0.770E-01  0.260E-20  0.385E-01  0.385E-01
 -17.384  0.799E-01  0.278E-20  0.400E-01  0.400E-01
 -17.374  0.830E-01  0.295E-20  0.415E-01  0.415E-01
 -17.364  0.860E-01  0.311E-20  0.430E-01  0.430E-01
 -17.354  0.890E-01  0.326E-20  0.445E-01  0.445E-01
 -17.344  0.918E-01  0.340E-20  0.459E-01  0.459E-01
 -17.334  0.944E-01  0.352E-20  0.472E-01  0.472E-01
 -17.324  0.966E-01  0.362E-20  0.483E-01  0.483E-01
 -17.314  0.986E-01  0.370E-20  0.493E-01  0.493E-01
 -17.304  0.100E+00  0.376E-20  0.501E-01  0.501E-01
 -17.294  0.101E+00  0.378E-20  0.506E-01  0.506E-01
 -17.284  0.102E+00  0.378E-20  0.509E-01  0.509E-01
 -17.274  0.102E+00  0.375E-20  0.511E-01  0.511E-01
 -17.264  0.102E+00  0.370E-20  0.509E-01  0.509E-01
 -17.254  0.101E+00  0.362E-20  0.506E-01  0.506E-01
 -17.244  0.100E+00  0.351E-20  0.501E-01  0.501E-01
 -17.234  0.988E-01  0.339E-20  0.494E-01  0.494E-01
 -17.224  0.971E-01  0.324E-20  0.485E-01  0.485E-01
 -17.214  0.951E-01  0.309E-20  0.476E-01  0.476E-01
 -17.204  0.929E-01  0.292E-20  0.464E-01  0.464E-01
 -17.194  0.905E-01  0.275E-20  0.453E-01  0.453E-01
 -17.184  0.880E-01  0.257E-20  0.440E-01  0.440E-01
 -17.174  0.855E-01  0.240E-20  0.427E-01  0.427E-01
 -17.164  0.829E-01  0.224E-20  0.415E-01  0.415E-01
 -17.154  0.804E-01  0.208E-20  0.402E-01  0.402E-01
 -17.144  0.780E-01  0.195E-20  0.390E-01  0.390E-01
 -17.134  0.757E-01  0.182E-20  0.379E-01  0.379E-01
 -17.124  0.736E-01  0.172E-20  0.368E-01  0.368E-01
 -17.114  0.717E-01  0.164E-20  0.358E-01  0.358E-01
 -17.104  0.700E-01  0.157E-20  0.350E-01  0.350E-01
 -17.094  0.686E-01  0.153E-20  0.343E-01  0.343E-01
 -17.084  0.674E-01  0.151E-20  0.337E-01  0.337E-01
 -17.074  0.665E-01  0.151E-20  0.332E-01  0.332E-01
 -17.064  0.658E-01  0.153E-20  0.329E-01  0.329E-01
 -17.054  0.654E-01  0.157E-20  0.327E-01  0.327E-01
 -17.044  0.652E-01  0.162E-20  0.326E-01  0.326E-01
 -17.034  0.653E-01  0.168E-20  0.326E-01  0.326E-01
 -17.024  0.655E-01  0.175E-20  0.327E-01  0.327E-01
 -17.014  0.658E-01  0.183E-20  0.329E-01  0.329E-01
 -17.004  0.663E-01  0.192E-20  0.331E-01  0.331E-01
 -16.994  0.669E-01  0.201E-20  0.334E-01  0.334E-01
 -16.984  0.675E-01  0.210E-20  0.338E-01  0.338E-01
 -16.974  0.683E-01  0.218E-20  0.341E-01  0.341E-01
 -16.964  0.691E-01  0.227E-20  0.345E-01  0.345E-01
 -16.954  0.700E-01  0.236E-20  0.350E-01  0.350E-01
 -16.944  0.709E-01  0.244E-20  0.355E-01  0.355E-01
 -16.934  0.720E-01  0.252E-20  0.360E-01  0.360E-01
 -16.924  0.732E-01  0.260E-20  0.366E-01  0.366E-01
 -16.914  0.745E-01  0.267E-20  0.373E-01  0.373E-01
 -16.904  0.760E-01  0.274E-20  0.380E-01  0.380E-01
 -16.894  0.776E-01  0.280E-20  0.388E-01  0.388E-01
 -16.884  0.795E-01  0.286E-20  0.397E-01  0.397E-01
 -16.874  0.815E-01  0.292E-20  0.407E-01  0.407E-01
 -16.864  0.836E-01  0.297E-20  0.418E-01  0.418E-01
 -16.854  0.860E-01  0.301E-20  0.430E-01  0.430E-01
 -16.844  0.884E-01  0.304E-20  0.442E-01  0.442E-01
 -16.834  0.908E-01  0.307E-20  0.454E-01  0.454E-01
 -16.824  0.933E-01  0.310E-20  0.467E-01  0.467E-01
 -16.814  0.957E-01  0.311E-20  0.479E-01  0.479E-01
 -16.804  0.981E-01  0.312E-20  0.490E-01  0.490E-01
 -16.794  0.100E+00  0.313E-20  0.501E-01  0.501E-01
 -16.784  0.102E+00  0.314E-20  0.511E-01  0.511E-01
 -16.774  0.104E+00  0.316E-20  0.519E-01  0.519E-01
 -16.764  0.105E+00  0.318E-20  0.525E-01  0.525E-01
 -16.754  0.106E+00  0.322E-20  0.530E-01  0.530E-01
 -16.744  0.107E+00  0.328E-20  0.533E-01  0.533E-01
 -16.734  0.107E+00  0.337E-20  0.535E-01  0.535E-01
 -16.724  0.107E+00  0.350E-20  0.534E-01  0.534E-01
 -16.714  0.106E+00  0.366E-20  0.532E-01  0.532E-01
 -16.704  0.106E+00  0.388E-20  0.528E-01  0.528E-01
 -16.694  0.105E+00  0.414E-20  0.523E-01  0.523E-01
 -16.684  0.103E+00  0.446E-20  0.516E-01  0.516E-01
 -16.674  0.102E+00  0.485E-20  0.509E-01  0.509E-01
 -16.664  0.100E+00  0.529E-20  0.500E-01  0.500E-01
 -16.654  0.981E-01  0.578E-20  0.491E-01  0.491E-01
 -16.644  0.961E-01  0.633E-20  0.481E-01  0.481E-01
 -16.634  0.940E-01  0.692E-20  0.470E-01  0.470E-01
 -16.624  0.919E-01  0.755E-20  0.459E-01  0.459E-01
 -16.614  0.896E-01  0.819E-20  0.448E-01  0.448E-01
 -16.604  0.874E-01  0.885E-20  0.437E-01  0.437E-01
 -16.594  0.851E-01  0.950E-20  0.425E-01  0.425E-01
 -16.584  0.828E-01  0.101E-19  0.414E-01  0.414E-01
 -16.574  0.805E-01  0.107E-19  0.402E-01  0.402E-01
 -16.564  0.782E-01  0.113E-19  0.391E-01  0.391E-01
 -16.554  0.759E-01  0.117E-19  0.379E-01  0.379E-01
 -16.544  0.736E-01  0.121E-19  0.368E-01  0.368E-01
 -16.534  0.714E-01  0.124E-19  0.357E-01  0.357E-01
 -16.524  0.693E-01  0.127E-19  0.347E-01  0.347E-01
 -16.514  0.673E-01  0.128E-19  0.336E-01  0.336E-01
 -16.504  0.653E-01  0.128E-19  0.326E-01  0.326E-01
 -16.494  0.635E-01  0.127E-19  0.317E-01  0.317E-01
 -16.484  0.618E-01  0.126E-19  0.309E-01  0.309E-01
 -16.474  0.602E-01  0.123E-19  0.301E-01  0.301E-01
 -16.464  0.589E-01  0.120E-19  0.294E-01  0.294E-01
 -16.454  0.577E-01  0.117E-19  0.288E-01  0.288E-01
 -16.444  0.567E-01  0.113E-19  0.284E-01  0.284E-01
 -16.434  0.560E-01  0.108E-19  0.280E-01  0.280E-01
 -16.424  0.555E-01  0.103E-19  0.277E-01  0.277E-01
 -16.414  0.552E-01  0.982E-20  0.276E-01  0.276E-01
 -16.404  0.552E-01  0.932E-20  0.276E-01  0.276E-01
 -16.394  0.554E-01  0.881E-20  0.277E-01  0.277E-01
 -16.384  0.559E-01  0.830E-20  0.279E-01  0.279E-01
 -16.374  0.566E-01  0.780E-20  0.283E-01  0.283E-01
 -16.364  0.575E-01  0.730E-20  0.288E-01  0.288E-01
 -16.354  0.587E-01  0.683E-20  0.293E-01  0.293E-01
 -16.344  0.600E-01  0.636E-20  0.300E-01  0.300E-01
 -16.334  0.615E-01  0.592E-20  0.308E-01  0.308E-01
 -16.324  0.632E-01  0.549E-20  0.316E-01  0.316E-01
 -16.314  0.650E-01  0.508E-20  0.325E-01  0.325E-01
 -16.304  0.669E-01  0.470E-20  0.334E-01  0.334E-01
 -16.294  0.688E-01  0.434E-20  0.344E-01  0.344E-01
 -16.284  0.707E-01  0.400E-20  0.353E-01  0.353E-01
 -16.274  0.726E-01  0.369E-20  0.363E-01  0.363E-01
 -16.264  0.743E-01  0.341E-20  0.372E-01  0.372E-01
 -16.254  0.760E-01  0.316E-20  0.380E-01  0.380E-01
 -16.244  0.775E-01  0.293E-20  0.387E-01  0.387E-01
 -16.234  0.788E-01  0.274E-20  0.394E-01  0.394E-01
 -16.224  0.798E-01  0.258E-20  0.399E-01  0.399E-01
 -16.214  0.806E-01  0.245E-20  0.403E-01  0.403E-01
 -16.204  0.812E-01  0.235E-20  0.406E-01  0.406E-01
 -16.194  0.814E-01  0.227E-20  0.407E-01  0.407E-01
 -16.184  0.814E-01  0.222E-20  0.407E-01  0.407E-01
 -16.174  0.810E-01  0.218E-20  0.405E-01  0.405E-01
 -16.164  0.804E-01  0.217E-20  0.402E-01  0.402E-01
 -16.154  0.795E-01  0.216E-20  0.398E-01  0.398E-01
 -16.144  0.784E-01  0.217E-20  0.392E-01  0.392E-01
 -16.134  0.771E-01  0.218E-20  0.385E-01  0.385E-01
 -16.124  0.756E-01  0.219E-20  0.378E-01  0.378E-01
 -16.114  0.739E-01  0.219E-20  0.369E-01  0.369E-01
 -16.104  0.721E-01  0.220E-20  0.360E-01  0.360E-01
 -16.094  0.702E-01  0.220E-20  0.351E-01  0.351E-01
 -16.084  0.683E-01  0.219E-20  0.341E-01  0.341E-01
 -16.074  0.664E-01  0.217E-20  0.332E-01  0.332E-01
 -16.064  0.645E-01  0.214E-20  0.323E-01  0.323E-01
 -16.054  0.628E-01  0.210E-20  0.314E-01  0.314E-01
 -16.044  0.611E-01  0.205E-20  0.306E-01  0.306E-01
 -16.034  0.597E-01  0.199E-20  0.298E-01  0.298E-01
 -16.024  0.584E-01  0.193E-20  0.292E-01  0.292E-01
 -16.014  0.575E-01  0.186E-20  0.287E-01  0.287E-01
 -16.004  0.568E-01  0.180E-20  0.284E-01  0.284E-01
 -15.994  0.565E-01  0.173E-20  0.282E-01  0.282E-01
 -15.984  0.565E-01  0.166E-20  0.282E-01  0.282E-01
 -15.974  0.569E-01  0.161E-20  0.285E-01  0.285E-01
 -15.964  0.577E-01  0.156E-20  0.289E-01  0.289E-01
 -15.954  0.590E-01  0.152E-20  0.295E-01  0.295E-01
 -15.944  0.607E-01  0.150E-20  0.303E-01  0.303E-01
 -15.934  0.628E-01  0.150E-20  0.314E-01  0.314E-01
 -15.924  0.653E-01  0.151E-20  0.327E-01  0.327E-01
 -15.914  0.682E-01  0.155E-20  0.341E-01  0.341E-01
 -15.904  0.715E-01  0.161E-20  0.357E-01  0.357E-01
 -15.894  0.751E-01  0.169E-20  0.375E-01  0.375E-01
 -15.884  0.789E-01  0.179E-20  0.395E-01  0.395E-01
 -15.874  0.830E-01  0.192E-20  0.415E-01  0.415E-01
 -15.864  0.872E-01  0.208E-20  0.436E-01  0.436E-01
 -15.854  0.915E-01  0.225E-20  0.457E-01  0.457E-01
 -15.844  0.958E-01  0.244E-20  0.479E-01  0.479E-01
 -15.834  0.999E-01  0.265E-20  0.500E-01  0.500E-01
 -15.824  0.104E+00  0.287E-20  0.519E-01  0.519E-01
 -15.814  0.108E+00  0.310E-20  0.538E-01  0.538E-01
 -15.804  0.111E+00  0.334E-20  0.555E-01  0.555E-01
 -15.794  0.114E+00  0.357E-20  0.570E-01  0.570E-01
 -15.784  0.117E+00  0.380E-20  0.583E-01  0.583E-01
 -15.774  0.119E+00  0.401E-20  0.593E-01  0.593E-01
 -15.764  0.120E+00  0.420E-20  0.600E-01  0.600E-01
 -15.754  0.121E+00  0.437E-20  0.605E-01  0.605E-01
 -15.744  0.121E+00  0.451E-20  0.607E-01  0.607E-01
 -15.734  0.121E+00  0.462E-20  0.607E-01  0.607E-01
 -15.724  0.121E+00  0.469E-20  0.604E-01  0.604E-01
 -15.714  0.120E+00  0.473E-20  0.600E-01  0.600E-01
 -15.704  0.119E+00  0.473E-20  0.594E-01  0.594E-01
 -15.694  0.117E+00  0.469E-20  0.587E-01  0.587E-01
 -15.684  0.116E+00  0.462E-20  0.579E-01  0.579E-01
 -15.674  0.114E+00  0.451E-20  0.571E-01  0.571E-01
 -15.664  0.113E+00  0.438E-20  0.563E-01  0.563E-01
 -15.654  0.111E+00  0.423E-20  0.556E-01  0.556E-01
 -15.644  0.110E+00  0.405E-20  0.549E-01  0.549E-01
 -15.634  0.109E+00  0.387E-20  0.544E-01  0.544E-01
 -15.624  0.108E+00  0.368E-20  0.539E-01  0.539E-01
 -15.614  0.107E+00  0.350E-20  0.535E-01  0.535E-01
 -15.604  0.106E+00  0.332E-20  0.531E-01  0.531E-01
 -15.594  0.106E+00  0.316E-20  0.528E-01  0.528E-01
 -15.584  0.105E+00  0.303E-20  0.526E-01  0.526E-01
 -15.574  0.105E+00  0.292E-20  0.523E-01  0.523E-01
 -15.564  0.104E+00  0.285E-20  0.519E-01  0.519E-01
 -15.554  0.103E+00  0.281E-20  0.516E-01  0.516E-01
 -15.544  0.102E+00  0.282E-20  0.511E-01  0.511E-01
 -15.534  0.101E+00  0.287E-20  0.505E-01  0.505E-01
 -15.524  0.995E-01  0.297E-20  0.497E-01  0.497E-01
 -15.514  0.978E-01  0.312E-20  0.489E-01  0.489E-01
 -15.504  0.959E-01  0.331E-20  0.479E-01  0.479E-01
 -15.494  0.938E-01  0.355E-20  0.469E-01  0.469E-01
 -15.484  0.917E-01  0.383E-20  0.458E-01  0.458E-01
 -15.474  0.895E-01  0.415E-20  0.447E-01  0.447E-01
 -15.464  0.873E-01  0.450E-20  0.436E-01  0.436E-01
 -15.454  0.852E-01  0.487E-20  0.426E-01  0.426E-01
 -15.444  0.834E-01  0.526E-20  0.417E-01  0.417E-01
 -15.434  0.819E-01  0.565E-20  0.409E-01  0.409E-01
 -15.424  0.807E-01  0.605E-20  0.404E-01  0.404E-01
 -15.414  0.800E-01  0.643E-20  0.400E-01  0.400E-01
 -15.404  0.797E-01  0.679E-20  0.399E-01  0.399E-01
 -15.394  0.800E-01  0.712E-20  0.400E-01  0.400E-01
 -15.384  0.807E-01  0.743E-20  0.404E-01  0.404E-01
 -15.374  0.821E-01  0.770E-20  0.410E-01  0.410E-01
 -15.364  0.839E-01  0.793E-20  0.419E-01  0.419E-01
 -15.354  0.863E-01  0.814E-20  0.431E-01  0.431E-01
 -15.344  0.891E-01  0.832E-20  0.445E-01  0.445E-01
 -15.334  0.923E-01  0.848E-20  0.461E-01  0.461E-01
 -15.324  0.959E-01  0.864E-20  0.479E-01  0.479E-01
 -15.314  0.997E-01  0.880E-20  0.499E-01  0.499E-01
 -15.304  0.104E+00  0.899E-20  0.519E-01  0.519E-01
 -15.294  0.108E+00  0.921E-20  0.540E-01  0.540E-01
 -15.284  0.112E+00  0.948E-20  0.561E-01  0.561E-01
 -15.274  0.116E+00  0.981E-20  0.581E-01  0.581E-01
 -15.264  0.120E+00  0.102E-19  0.600E-01  0.600E-01
 -15.254  0.124E+00  0.107E-19  0.618E-01  0.618E-01
 -15.244  0.127E+00  0.112E-19  0.634E-01  0.634E-01
 -15.234  0.130E+00  0.119E-19  0.648E-01  0.648E-01
 -15.224  0.132E+00  0.125E-19  0.658E-01  0.658E-01
 -15.214  0.133E+00  0.133E-19  0.666E-01  0.666E-01
 -15.204  0.134E+00  0.141E-19  0.670E-01  0.670E-01
 -15.194  0.134E+00  0.149E-19  0.670E-01  0.670E-01
 -15.184  0.133E+00  0.157E-19  0.667E-01  0.667E-01
 -15.174  0.132E+00  0.164E-19  0.660E-01  0.660E-01
 -15.164  0.130E+00  0.171E-19  0.649E-01  0.649E-01
 -15.154  0.127E+00  0.177E-19  0.635E-01  0.635E-01
 -15.144  0.124E+00  0.182E-19  0.618E-01  0.618E-01
 -15.134  0.120E+00  0.185E-19  0.599E-01  0.599E-01
 -15.124  0.115E+00  0.187E-19  0.577E-01  0.577E-01
 -15.114  0.111E+00  0.188E-19  0.555E-01  0.555E-01
 -15.104  0.106E+00  0.186E-19  0.531E-01  0.531E-01
 -15.094  0.101E+00  0.183E-19  0.507E-01  0.507E-01
 -15.084  0.967E-01  0.179E-19  0.483E-01  0.483E-01
 -15.074  0.922E-01  0.172E-19  0.461E-01  0.461E-01
 -15.064  0.881E-01  0.165E-19  0.441E-01  0.441E-01
 -15.054  0.845E-01  0.156E-19  0.423E-01  0.423E-01
 -15.044  0.815E-01  0.147E-19  0.407E-01  0.407E-01
 -15.034  0.791E-01  0.137E-19  0.395E-01  0.395E-01
 -15.024  0.775E-01  0.127E-19  0.387E-01  0.387E-01
 -15.014  0.766E-01  0.117E-19  0.383E-01  0.383E-01
 -15.004  0.766E-01  0.107E-19  0.383E-01  0.383E-01
 -14.994  0.775E-01  0.976E-20  0.387E-01  0.387E-01
 -14.984  0.791E-01  0.889E-20  0.395E-01  0.395E-01
 -14.974  0.815E-01  0.811E-20  0.407E-01  0.407E-01
 -14.964  0.846E-01  0.743E-20  0.423E-01  0.423E-01
 -14.954  0.883E-01  0.685E-20  0.441E-01  0.441E-01
 -14.944  0.925E-01  0.639E-20  0.462E-01  0.462E-01
 -14.934  0.970E-01  0.605E-20  0.485E-01  0.485E-01
 -14.924  0.102E+00  0.582E-20  0.509E-01  0.509E-01
 -14.914  0.107E+00  0.571E-20  0.534E-01  0.534E-01
 -14.904  0.112E+00  0.571E-20  0.559E-01  0.559E-01
 -14.894  0.116E+00  0.582E-20  0.582E-01  0.582E-01
 -14.884  0.121E+00  0.604E-20  0.605E-01  0.605E-01
 -14.874  0.125E+00  0.635E-20  0.625E-01  0.625E-01
 -14.864  0.129E+00  0.675E-20  0.643E-01  0.643E-01
 -14.854  0.132E+00  0.723E-20  0.658E-01  0.658E-01
 -14.844  0.134E+00  0.779E-20  0.670E-01  0.670E-01
 -14.834  0.136E+00  0.842E-20  0.679E-01  0.679E-01
 -14.824  0.137E+00  0.910E-20  0.685E-01  0.685E-01
 -14.814  0.137E+00  0.982E-20  0.687E-01  0.687E-01
 -14.804  0.137E+00  0.106E-19  0.686E-01  0.686E-01
 -14.794  0.137E+00  0.113E-19  0.683E-01  0.683E-01
 -14.784  0.135E+00  0.121E-19  0.676E-01  0.676E-01
 -14.774  0.134E+00  0.129E-19  0.668E-01  0.668E-01
 -14.764  0.132E+00  0.136E-19  0.658E-01  0.658E-01
 -14.754  0.129E+00  0.142E-19  0.646E-01  0.646E-01
 -14.744  0.127E+00  0.148E-19  0.634E-01  0.634E-01
 -14.734  0.124E+00  0.153E-19  0.621E-01  0.621E-01
 -14.724  0.122E+00  0.157E-19  0.608E-01  0.608E-01
 -14.714  0.119E+00  0.160E-19  0.595E-01  0.595E-01
 -14.704  0.117E+00  0.162E-19  0.583E-01  0.583E-01
 -14.694  0.114E+00  0.162E-19  0.572E-01  0.572E-01
 -14.684  0.113E+00  0.161E-19  0.563E-01  0.563E-01
 -14.674  0.111E+00  0.159E-19  0.554E-01  0.554E-01
 -14.664  0.109E+00  0.155E-19  0.547E-01  0.547E-01
 -14.654  0.108E+00  0.151E-19  0.542E-01  0.542E-01
 -14.644  0.108E+00  0.145E-19  0.538E-01  0.538E-01
 -14.634  0.107E+00  0.139E-19  0.536E-01  0.536E-01
 -14.624  0.107E+00  0.131E-19  0.536E-01  0.536E-01
 -14.614  0.108E+00  0.124E-19  0.538E-01  0.538E-01
 -14.604  0.108E+00  0.116E-19  0.541E-01  0.541E-01
 -14.594  0.109E+00  0.108E-19  0.545E-01  0.545E-01
 -14.584  0.110E+00  0.999E-20  0.551E-01  0.551E-01
 -14.574  0.111E+00  0.922E-20  0.557E-01  0.557E-01
 -14.564  0.113E+00  0.847E-20  0.565E-01  0.565E-01
 -14.554  0.115E+00  0.775E-20  0.573E-01  0.573E-01
 -14.544  0.116E+00  0.708E-20  0.582E-01  0.582E-01
 -14.534  0.118E+00  0.646E-20  0.590E-01  0.590E-01
 -14.524  0.120E+00  0.589E-20  0.598E-01  0.598E-01
 -14.514  0.121E+00  0.536E-20  0.606E-01  0.606E-01
 -14.504  0.122E+00  0.488E-20  0.612E-01  0.612E-01
 -14.494  0.124E+00  0.444E-20  0.618E-01  0.618E-01
 -14.484  0.124E+00  0.404E-20  0.621E-01  0.621E-01
 -14.474  0.125E+00  0.368E-20  0.623E-01  0.623E-01
 -14.464  0.125E+00  0.335E-20  0.624E-01  0.624E-01
 -14.454  0.124E+00  0.305E-20  0.622E-01  0.622E-01
 -14.444  0.124E+00  0.278E-20  0.618E-01  0.618E-01
 -14.434  0.123E+00  0.253E-20  0.613E-01  0.613E-01
 -14.424  0.121E+00  0.231E-20  0.606E-01  0.606E-01
 -14.414  0.119E+00  0.212E-20  0.597E-01  0.597E-01
 -14.404  0.118E+00  0.195E-20  0.588E-01  0.588E-01
 -14.394  0.115E+00  0.180E-20  0.577E-01  0.577E-01
 -14.384  0.113E+00  0.167E-20  0.567E-01  0.567E-01
 -14.374  0.111E+00  0.157E-20  0.556E-01  0.556E-01
 -14.364  0.109E+00  0.149E-20  0.546E-01  0.546E-01
 -14.354  0.107E+00  0.143E-20  0.537E-01  0.537E-01
 -14.344  0.106E+00  0.139E-20  0.529E-01  0.529E-01
 -14.334  0.104E+00  0.138E-20  0.522E-01  0.522E-01
 -14.324  0.104E+00  0.139E-20  0.518E-01  0.518E-01
 -14.314  0.103E+00  0.141E-20  0.515E-01  0.515E-01
 -14.304  0.103E+00  0.146E-20  0.514E-01  0.514E-01
 -14.294  0.103E+00  0.152E-20  0.514E-01  0.514E-01
 -14.284  0.103E+00  0.160E-20  0.517E-01  0.517E-01
 -14.274  0.104E+00  0.169E-20  0.521E-01  0.521E-01
 -14.264  0.105E+00  0.179E-20  0.526E-01  0.526E-01
 -14.254  0.107E+00  0.190E-20  0.533E-01  0.533E-01
 -14.244  0.108E+00  0.202E-20  0.539E-01  0.539E-01
 -14.234  0.109E+00  0.215E-20  0.546E-01  0.546E-01
 -14.224  0.111E+00  0.227E-20  0.553E-01  0.553E-01
 -14.214  0.112E+00  0.240E-20  0.560E-01  0.560E-01
 -14.204  0.113E+00  0.253E-20  0.565E-01  0.565E-01
 -14.194  0.114E+00  0.265E-20  0.570E-01  0.570E-01
 -14.184  0.115E+00  0.278E-20  0.573E-01  0.573E-01
 -14.174  0.115E+00  0.290E-20  0.574E-01  0.574E-01
 -14.164  0.115E+00  0.301E-20  0.574E-01  0.574E-01
 -14.154  0.115E+00  0.313E-20  0.573E-01  0.573E-01
 -14.144  0.114E+00  0.324E-20  0.570E-01  0.570E-01
 -14.134  0.113E+00  0.335E-20  0.565E-01  0.565E-01
 -14.124  0.112E+00  0.346E-20  0.560E-01  0.560E-01
 -14.114  0.111E+00  0.357E-20  0.554E-01  0.554E-01
 -14.104  0.109E+00  0.369E-20  0.547E-01  0.547E-01
 -14.094  0.108E+00  0.380E-20  0.539E-01  0.539E-01
 -14.084  0.106E+00  0.392E-20  0.532E-01  0.532E-01
 -14.074  0.105E+00  0.404E-20  0.525E-01  0.525E-01
 -14.064  0.104E+00  0.417E-20  0.518E-01  0.518E-01
 -14.054  0.102E+00  0.429E-20  0.512E-01  0.512E-01
 -14.044  0.101E+00  0.441E-20  0.506E-01  0.506E-01
 -14.034  0.100E+00  0.453E-20  0.501E-01  0.501E-01
 -14.024  0.994E-01  0.464E-20  0.497E-01  0.497E-01
 -14.014  0.987E-01  0.474E-20  0.493E-01  0.493E-01
 -14.004  0.980E-01  0.483E-20  0.490E-01  0.490E-01
 -13.994  0.975E-01  0.490E-20  0.487E-01  0.487E-01
 -13.984  0.970E-01  0.496E-20  0.485E-01  0.485E-01
 -13.974  0.965E-01  0.501E-20  0.483E-01  0.483E-01
 -13.964  0.961E-01  0.505E-20  0.481E-01  0.481E-01
 -13.954  0.957E-01  0.507E-20  0.478E-01  0.478E-01
 -13.944  0.952E-01  0.509E-20  0.476E-01  0.476E-01
 -13.934  0.948E-01  0.510E-20  0.474E-01  0.474E-01
 -13.924  0.945E-01  0.512E-20  0.472E-01  0.472E-01
 -13.914  0.942E-01  0.514E-20  0.471E-01  0.471E-01
 -13.904  0.941E-01  0.516E-20  0.470E-01  0.470E-01
 -13.894  0.941E-01  0.520E-20  0.470E-01  0.470E-01
 -13.884  0.942E-01  0.526E-20  0.471E-01  0.471E-01
 -13.874  0.946E-01  0.533E-20  0.473E-01  0.473E-01
 -13.864  0.953E-01  0.542E-20  0.476E-01  0.476E-01
 -13.854  0.962E-01  0.553E-20  0.481E-01  0.481E-01
 -13.844  0.973E-01  0.565E-20  0.486E-01  0.486E-01
 -13.834  0.986E-01  0.578E-20  0.493E-01  0.493E-01
 -13.824  0.100E+00  0.591E-20  0.501E-01  0.501E-01
 -13.814  0.102E+00  0.605E-20  0.509E-01  0.509E-01
 -13.804  0.103E+00  0.618E-20  0.517E-01  0.517E-01
 -13.794  0.105E+00  0.630E-20  0.525E-01  0.525E-01
 -13.784  0.107E+00  0.640E-20  0.533E-01  0.533E-01
 -13.774  0.108E+00  0.649E-20  0.540E-01  0.540E-01
 -13.764  0.109E+00  0.657E-20  0.545E-01  0.545E-01
 -13.754  0.110E+00  0.663E-20  0.549E-01  0.549E-01
 -13.744  0.110E+00  0.669E-20  0.552E-01  0.552E-01
 -13.734  0.110E+00  0.674E-20  0.552E-01  0.552E-01
 -13.724  0.110E+00  0.681E-20  0.549E-01  0.549E-01
 -13.714  0.109E+00  0.691E-20  0.545E-01  0.545E-01
 -13.704  0.108E+00  0.705E-20  0.539E-01  0.539E-01
 -13.694  0.106E+00  0.725E-20  0.532E-01  0.532E-01
 -13.684  0.105E+00  0.753E-20  0.523E-01  0.523E-01
 -13.674  0.103E+00  0.791E-20  0.513E-01  0.513E-01
 -13.664  0.101E+00  0.842E-20  0.503E-01  0.503E-01
 -13.654  0.986E-01  0.906E-20  0.493E-01  0.493E-01
 -13.644  0.967E-01  0.986E-20  0.483E-01  0.483E-01
 -13.634  0.950E-01  0.108E-19  0.475E-01  0.475E-01
 -13.624  0.936E-01  0.119E-19  0.468E-01  0.468E-01
 -13.614  0.925E-01  0.133E-19  0.463E-01  0.463E-01
 -13.604  0.919E-01  0.147E-19  0.459E-01  0.459E-01
 -13.594  0.916E-01  0.163E-19  0.458E-01  0.458E-01
 -13.584  0.918E-01  0.181E-19  0.459E-01  0.459E-01
 -13.574  0.924E-01  0.199E-19  0.462E-01  0.462E-01
 -13.564  0.934E-01  0.219E-19  0.467E-01  0.467E-01
 -13.554  0.947E-01  0.238E-19  0.474E-01  0.474E-01
 -13.544  0.964E-01  0.258E-19  0.482E-01  0.482E-01
 -13.534  0.982E-01  0.277E-19  0.491E-01  0.491E-01
 -13.524  0.100E+00  0.295E-19  0.501E-01  0.501E-01
 -13.514  0.102E+00  0.312E-19  0.511E-01  0.511E-01
 -13.504  0.104E+00  0.326E-19  0.522E-01  0.522E-01
 -13.494  0.106E+00  0.339E-19  0.532E-01  0.532E-01
 -13.484  0.109E+00  0.349E-19  0.543E-01  0.543E-01
 -13.474  0.111E+00  0.356E-19  0.553E-01  0.553E-01
 -13.464  0.113E+00  0.361E-19  0.563E-01  0.563E-01
 -13.454  0.115E+00  0.363E-19  0.573E-01  0.573E-01
 -13.444  0.117E+00  0.363E-19  0.583E-01  0.583E-01
 -13.434  0.118E+00  0.360E-19  0.592E-01  0.592E-01
 -13.424  0.120E+00  0.354E-19  0.601E-01  0.601E-01
 -13.414  0.122E+00  0.347E-19  0.610E-01  0.610E-01
 -13.404  0.124E+00  0.339E-19  0.618E-01  0.618E-01
 -13.394  0.125E+00  0.330E-19  0.627E-01  0.627E-01
 -13.384  0.127E+00  0.320E-19  0.635E-01  0.635E-01
 -13.374  0.128E+00  0.309E-19  0.642E-01  0.642E-01
 -13.364  0.130E+00  0.299E-19  0.649E-01  0.649E-01
 -13.354  0.131E+00  0.289E-19  0.655E-01  0.655E-01
 -13.344  0.132E+00  0.280E-19  0.660E-01  0.660E-01
 -13.334  0.133E+00  0.271E-19  0.663E-01  0.663E-01
 -13.324  0.133E+00  0.263E-19  0.665E-01  0.665E-01
 -13.314  0.133E+00  0.256E-19  0.665E-01  0.665E-01
 -13.304  0.133E+00  0.250E-19  0.663E-01  0.663E-01
 -13.294  0.132E+00  0.244E-19  0.659E-01  0.659E-01
 -13.284  0.131E+00  0.239E-19  0.654E-01  0.654E-01
 -13.274  0.129E+00  0.235E-19  0.647E-01  0.647E-01
 -13.264  0.128E+00  0.232E-19  0.638E-01  0.638E-01
 -13.254  0.126E+00  0.229E-19  0.628E-01  0.628E-01
 -13.244  0.124E+00  0.227E-19  0.618E-01  0.618E-01
 -13.234  0.121E+00  0.226E-19  0.607E-01  0.607E-01
 -13.224  0.119E+00  0.226E-19  0.596E-01  0.596E-01
 -13.214  0.117E+00  0.227E-19  0.586E-01  0.586E-01
 -13.204  0.115E+00  0.230E-19  0.576E-01  0.576E-01
 -13.194  0.114E+00  0.235E-19  0.568E-01  0.568E-01
 -13.184  0.112E+00  0.241E-19  0.561E-01  0.561E-01
 -13.174  0.111E+00  0.250E-19  0.556E-01  0.556E-01
 -13.164  0.111E+00  0.261E-19  0.553E-01  0.553E-01
 -13.154  0.110E+00  0.274E-19  0.551E-01  0.551E-01
 -13.144  0.110E+00  0.289E-19  0.551E-01  0.551E-01
 -13.134  0.110E+00  0.307E-19  0.552E-01  0.552E-01
 -13.124  0.111E+00  0.326E-19  0.555E-01  0.555E-01
 -13.114  0.112E+00  0.347E-19  0.559E-01  0.559E-01
 -13.104  0.113E+00  0.369E-19  0.563E-01  0.563E-01
 -13.094  0.114E+00  0.391E-19  0.568E-01  0.568E-01
 -13.084  0.115E+00  0.413E-19  0.574E-01  0.574E-01
 -13.074  0.116E+00  0.435E-19  0.579E-01  0.579E-01
 -13.064  0.117E+00  0.455E-19  0.584E-01  0.584E-01
 -13.054  0.118E+00  0.472E-19  0.589E-01  0.589E-01
 -13.044  0.119E+00  0.488E-19  0.594E-01  0.594E-01
 -13.034  0.120E+00  0.500E-19  0.598E-01  0.598E-01
 -13.024  0.120E+00  0.508E-19  0.602E-01  0.602E-01
 -13.014  0.121E+00  0.513E-19  0.606E-01  0.606E-01
 -13.004  0.122E+00  0.514E-19  0.611E-01  0.611E-01
 -12.994  0.123E+00  0.512E-19  0.615E-01  0.615E-01
 -12.984  0.124E+00  0.505E-19  0.620E-01  0.620E-01
 -12.974  0.125E+00  0.495E-19  0.625E-01  0.625E-01
 -12.964  0.126E+00  0.482E-19  0.631E-01  0.631E-01
 -12.954  0.127E+00  0.467E-19  0.637E-01  0.637E-01
 -12.944  0.129E+00  0.449E-19  0.643E-01  0.643E-01
 -12.934  0.130E+00  0.430E-19  0.650E-01  0.650E-01
 -12.924  0.132E+00  0.410E-19  0.658E-01  0.658E-01
 -12.914  0.133E+00  0.389E-19  0.665E-01  0.665E-01
 -12.904  0.134E+00  0.368E-19  0.672E-01  0.672E-01
 -12.894  0.136E+00  0.348E-19  0.678E-01  0.678E-01
 -12.884  0.137E+00  0.328E-19  0.684E-01  0.684E-01
 -12.874  0.138E+00  0.310E-19  0.689E-01  0.689E-01
 -12.864  0.139E+00  0.292E-19  0.693E-01  0.693E-01
 -12.854  0.139E+00  0.276E-19  0.695E-01  0.695E-01
 -12.844  0.139E+00  0.262E-19  0.696E-01  0.696E-01
 -12.834  0.139E+00  0.249E-19  0.696E-01  0.696E-01
 -12.824  0.139E+00  0.238E-19  0.695E-01  0.695E-01
 -12.814  0.138E+00  0.229E-19  0.692E-01  0.692E-01
 -12.804  0.138E+00  0.222E-19  0.689E-01  0.689E-01
 -12.794  0.137E+00  0.217E-19  0.686E-01  0.686E-01
 -12.784  0.136E+00  0.214E-19  0.682E-01  0.682E-01
 -12.774  0.136E+00  0.213E-19  0.679E-01  0.679E-01
 -12.764  0.135E+00  0.213E-19  0.676E-01  0.676E-01
 -12.754  0.135E+00  0.216E-19  0.674E-01  0.674E-01
 -12.744  0.135E+00  0.221E-19  0.673E-01  0.673E-01
 -12.734  0.135E+00  0.228E-19  0.673E-01  0.673E-01
 -12.724  0.135E+00  0.237E-19  0.675E-01  0.675E-01
 -12.714  0.135E+00  0.247E-19  0.677E-01  0.677E-01
 -12.704  0.136E+00  0.258E-19  0.680E-01  0.680E-01
 -12.694  0.137E+00  0.270E-19  0.683E-01  0.683E-01
 -12.684  0.137E+00  0.283E-19  0.686E-01  0.686E-01
 -12.674  0.138E+00  0.296E-19  0.689E-01  0.689E-01
 -12.664  0.138E+00  0.308E-19  0.691E-01  0.691E-01
 -12.654  0.138E+00  0.319E-19  0.692E-01  0.692E-01
 -12.644  0.138E+00  0.329E-19  0.691E-01  0.691E-01
 -12.634  0.138E+00  0.337E-19  0.688E-01  0.688E-01
 -12.624  0.136E+00  0.343E-19  0.682E-01  0.682E-01
 -12.614  0.135E+00  0.347E-19  0.675E-01  0.675E-01
 -12.604  0.133E+00  0.348E-19  0.664E-01  0.664E-01
 -12.594  0.130E+00  0.346E-19  0.651E-01  0.651E-01
 -12.584  0.127E+00  0.342E-19  0.636E-01  0.636E-01
 -12.574  0.124E+00  0.335E-19  0.620E-01  0.620E-01
 -12.564  0.120E+00  0.325E-19  0.601E-01  0.601E-01
 -12.554  0.116E+00  0.314E-19  0.582E-01  0.582E-01
 -12.544  0.113E+00  0.301E-19  0.563E-01  0.563E-01
 -12.534  0.109E+00  0.287E-19  0.544E-01  0.544E-01
 -12.524  0.105E+00  0.272E-19  0.526E-01  0.526E-01
 -12.514  0.102E+00  0.257E-19  0.509E-01  0.509E-01
 -12.504  0.990E-01  0.242E-19  0.495E-01  0.495E-01
 -12.494  0.967E-01  0.227E-19  0.483E-01  0.483E-01
 -12.484  0.950E-01  0.214E-19  0.475E-01  0.475E-01
 -12.474  0.941E-01  0.202E-19  0.470E-01  0.470E-01
 -12.464  0.939E-01  0.191E-19  0.470E-01  0.470E-01
 -12.454  0.946E-01  0.183E-19  0.473E-01  0.473E-01
 -12.444  0.962E-01  0.175E-19  0.481E-01  0.481E-01
 -12.434  0.986E-01  0.170E-19  0.493E-01  0.493E-01
 -12.424  0.102E+00  0.166E-19  0.509E-01  0.509E-01
 -12.414  0.106E+00  0.164E-19  0.529E-01  0.529E-01
 -12.404  0.110E+00  0.163E-19  0.552E-01  0.552E-01
 -12.394  0.116E+00  0.163E-19  0.579E-01  0.579E-01
 -12.384  0.122E+00  0.164E-19  0.608E-01  0.608E-01
 -12.374  0.128E+00  0.166E-19  0.639E-01  0.639E-01
 -12.364  0.134E+00  0.168E-19  0.671E-01  0.671E-01
 -12.354  0.141E+00  0.170E-19  0.703E-01  0.703E-01
 -12.344  0.147E+00  0.172E-19  0.735E-01  0.735E-01
 -12.334  0.153E+00  0.173E-19  0.766E-01  0.766E-01
 -12.324  0.159E+00  0.175E-19  0.795E-01  0.795E-01
 -12.314  0.164E+00  0.175E-19  0.822E-01  0.822E-01
 -12.304  0.169E+00  0.175E-19  0.846E-01  0.846E-01
 -12.294  0.173E+00  0.174E-19  0.866E-01  0.866E-01
 -12.284  0.176E+00  0.173E-19  0.882E-01  0.882E-01
 -12.274  0.179E+00  0.170E-19  0.894E-01  0.894E-01
 -12.264  0.180E+00  0.167E-19  0.901E-01  0.901E-01
 -12.254  0.181E+00  0.164E-19  0.904E-01  0.904E-01
 -12.244  0.181E+00  0.159E-19  0.903E-01  0.903E-01
 -12.234  0.179E+00  0.154E-19  0.897E-01  0.897E-01
 -12.224  0.178E+00  0.149E-19  0.888E-01  0.888E-01
 -12.214  0.175E+00  0.143E-19  0.875E-01  0.875E-01
 -12.204  0.172E+00  0.137E-19  0.859E-01  0.859E-01
 -12.194  0.168E+00  0.131E-19  0.841E-01  0.841E-01
 -12.184  0.164E+00  0.125E-19  0.820E-01  0.820E-01
 -12.174  0.160E+00  0.119E-19  0.798E-01  0.798E-01
 -12.164  0.155E+00  0.113E-19  0.774E-01  0.774E-01
 -12.154  0.150E+00  0.107E-19  0.750E-01  0.750E-01
 -12.144  0.145E+00  0.101E-19  0.726E-01  0.726E-01
 -12.134  0.140E+00  0.954E-20  0.701E-01  0.701E-01
 -12.124  0.135E+00  0.904E-20  0.677E-01  0.677E-01
 -12.114  0.131E+00  0.859E-20  0.654E-01  0.654E-01
 -12.104  0.126E+00  0.819E-20  0.632E-01  0.632E-01
 -12.094  0.122E+00  0.784E-20  0.611E-01  0.611E-01
 -12.084  0.118E+00  0.757E-20  0.591E-01  0.591E-01
 -12.074  0.115E+00  0.735E-20  0.574E-01  0.574E-01
 -12.064  0.112E+00  0.720E-20  0.558E-01  0.558E-01
 -12.054  0.109E+00  0.711E-20  0.544E-01  0.544E-01
 -12.044  0.107E+00  0.708E-20  0.533E-01  0.533E-01
 -12.034  0.105E+00  0.711E-20  0.524E-01  0.524E-01
 -12.024  0.103E+00  0.718E-20  0.517E-01  0.517E-01
 -12.014  0.103E+00  0.730E-20  0.513E-01  0.513E-01
 -12.004  0.102E+00  0.745E-20  0.512E-01  0.512E-01
 -11.994  0.102E+00  0.761E-20  0.512E-01  0.512E-01
 -11.984  0.103E+00  0.780E-20  0.516E-01  0.516E-01
 -11.974  0.104E+00  0.798E-20  0.521E-01  0.521E-01
 -11.964  0.106E+00  0.816E-20  0.529E-01  0.529E-01
 -11.954  0.108E+00  0.833E-20  0.539E-01  0.539E-01
 -11.944  0.110E+00  0.849E-20  0.550E-01  0.550E-01
 -11.934  0.113E+00  0.862E-20  0.563E-01  0.563E-01
 -11.924  0.115E+00  0.873E-20  0.577E-01  0.577E-01
 -11.914  0.118E+00  0.882E-20  0.592E-01  0.592E-01
 -11.904  0.122E+00  0.889E-20  0.608E-01  0.608E-01
 -11.894  0.125E+00  0.894E-20  0.625E-01  0.625E-01
 -11.884  0.128E+00  0.898E-20  0.642E-01  0.642E-01
 -11.874  0.132E+00  0.900E-20  0.659E-01  0.659E-01
 -11.864  0.135E+00  0.903E-20  0.676E-01  0.676E-01
 -11.854  0.139E+00  0.906E-20  0.693E-01  0.693E-01
 -11.844  0.142E+00  0.909E-20  0.710E-01  0.710E-01
 -11.834  0.145E+00  0.912E-20  0.727E-01  0.727E-01
 -11.824  0.149E+00  0.917E-20  0.743E-01  0.743E-01
 -11.814  0.152E+00  0.922E-20  0.758E-01  0.758E-01
 -11.804  0.155E+00  0.927E-20  0.773E-01  0.773E-01
 -11.794  0.157E+00  0.933E-20  0.787E-01  0.787E-01
 -11.784  0.160E+00  0.938E-20  0.801E-01  0.801E-01
 -11.774  0.163E+00  0.943E-20  0.813E-01  0.813E-01
 -11.764  0.165E+00  0.946E-20  0.823E-01  0.823E-01
 -11.754  0.166E+00  0.947E-20  0.832E-01  0.832E-01
 -11.744  0.168E+00  0.947E-20  0.840E-01  0.840E-01
 -11.734  0.169E+00  0.944E-20  0.845E-01  0.845E-01
 -11.724  0.170E+00  0.940E-20  0.848E-01  0.848E-01
 -11.714  0.170E+00  0.934E-20  0.849E-01  0.849E-01
 -11.704  0.170E+00  0.926E-20  0.848E-01  0.848E-01
 -11.694  0.169E+00  0.919E-20  0.844E-01  0.844E-01
 -11.684  0.168E+00  0.912E-20  0.838E-01  0.838E-01
 -11.674  0.166E+00  0.908E-20  0.830E-01  0.830E-01
 -11.664  0.164E+00  0.907E-20  0.821E-01  0.821E-01
 -11.654  0.162E+00  0.912E-20  0.809E-01  0.809E-01
 -11.644  0.159E+00  0.923E-20  0.797E-01  0.797E-01
 -11.634  0.157E+00  0.943E-20  0.783E-01  0.783E-01
 -11.624  0.154E+00  0.973E-20  0.769E-01  0.769E-01
 -11.614  0.151E+00  0.101E-19  0.755E-01  0.755E-01
 -11.604  0.148E+00  0.107E-19  0.741E-01  0.741E-01
 -11.594  0.146E+00  0.113E-19  0.728E-01  0.728E-01
 -11.584  0.143E+00  0.121E-19  0.716E-01  0.716E-01
 -11.574  0.141E+00  0.130E-19  0.705E-01  0.705E-01
 -11.564  0.139E+00  0.140E-19  0.695E-01  0.695E-01
 -11.554  0.137E+00  0.151E-19  0.687E-01  0.687E-01
 -11.544  0.136E+00  0.163E-19  0.681E-01  0.681E-01
 -11.534  0.135E+00  0.175E-19  0.677E-01  0.677E-01
 -11.524  0.135E+00  0.188E-19  0.675E-01  0.675E-01
 -11.514  0.135E+00  0.200E-19  0.674E-01  0.674E-01
 -11.504  0.135E+00  0.212E-19  0.675E-01  0.675E-01
 -11.494  0.136E+00  0.224E-19  0.678E-01  0.678E-01
 -11.484  0.136E+00  0.235E-19  0.681E-01  0.681E-01
 -11.474  0.137E+00  0.245E-19  0.686E-01  0.686E-01
 -11.464  0.138E+00  0.253E-19  0.692E-01  0.692E-01
 -11.454  0.140E+00  0.259E-19  0.698E-01  0.698E-01
 -11.444  0.141E+00  0.264E-19  0.705E-01  0.705E-01
 -11.434  0.142E+00  0.267E-19  0.712E-01  0.712E-01
 -11.424  0.144E+00  0.268E-19  0.719E-01  0.719E-01
 -11.414  0.145E+00  0.267E-19  0.726E-01  0.726E-01
 -11.404  0.146E+00  0.265E-19  0.732E-01  0.732E-01
 -11.394  0.147E+00  0.260E-19  0.737E-01  0.737E-01
 -11.384  0.148E+00  0.255E-19  0.741E-01  0.741E-01
 -11.374  0.149E+00  0.248E-19  0.743E-01  0.743E-01
 -11.364  0.149E+00  0.239E-19  0.744E-01  0.744E-01
 -11.354  0.149E+00  0.230E-19  0.743E-01  0.743E-01
 -11.344  0.148E+00  0.220E-19  0.740E-01  0.740E-01
 -11.334  0.147E+00  0.210E-19  0.735E-01  0.735E-01
 -11.324  0.146E+00  0.199E-19  0.728E-01  0.728E-01
 -11.314  0.144E+00  0.188E-19  0.719E-01  0.719E-01
 -11.304  0.142E+00  0.177E-19  0.708E-01  0.708E-01
 -11.294  0.139E+00  0.167E-19  0.695E-01  0.695E-01
 -11.284  0.136E+00  0.157E-19  0.682E-01  0.682E-01
 -11.274  0.134E+00  0.147E-19  0.669E-01  0.669E-01
 -11.264  0.131E+00  0.138E-19  0.655E-01  0.655E-01
 -11.254  0.128E+00  0.131E-19  0.642E-01  0.642E-01
 -11.244  0.126E+00  0.124E-19  0.631E-01  0.631E-01
 -11.234  0.124E+00  0.118E-19  0.622E-01  0.622E-01
 -11.224  0.123E+00  0.114E-19  0.616E-01  0.616E-01
 -11.214  0.122E+00  0.112E-19  0.612E-01  0.612E-01
 -11.204  0.123E+00  0.111E-19  0.613E-01  0.613E-01
 -11.194  0.124E+00  0.111E-19  0.618E-01  0.618E-01
 -11.184  0.125E+00  0.114E-19  0.627E-01  0.627E-01
 -11.174  0.128E+00  0.118E-19  0.641E-01  0.641E-01
 -11.164  0.132E+00  0.123E-19  0.658E-01  0.658E-01
 -11.154  0.136E+00  0.271E-13  0.680E-01  0.680E-01
 -11.144  0.141E+00  0.565E-13  0.706E-01  0.706E-01
 -11.134  0.147E+00  0.231E-12  0.735E-01  0.735E-01
 -11.124  0.153E+00  0.479E-12  0.766E-01  0.766E-01
 -11.114  0.160E+00  0.981E-12  0.799E-01  0.799E-01
 -11.104  0.167E+00  0.199E-11  0.834E-01  0.834E-01
 -11.094  0.174E+00  0.399E-11  0.868E-01  0.868E-01
 -11.084  0.180E+00  0.803E-11  0.902E-01  0.902E-01
 -11.074  0.187E+00  0.158E-10  0.934E-01  0.934E-01
 -11.064  0.193E+00  0.308E-10  0.963E-01  0.963E-01
 -11.054  0.198E+00  0.592E-10  0.989E-01  0.989E-01
 -11.044  0.202E+00  0.113E-09  0.101E+00  0.101E+00
 -11.034  0.206E+00  0.212E-09  0.103E+00  0.103E+00
 -11.024  0.208E+00  0.396E-09  0.104E+00  0.104E+00
 -11.014  0.210E+00  0.731E-09  0.105E+00  0.105E+00
 -11.004  0.210E+00  0.133E-08  0.105E+00  0.105E+00
 -10.994  0.209E+00  0.241E-08  0.104E+00  0.104E+00
 -10.984  0.207E+00  0.431E-08  0.103E+00  0.103E+00
 -10.974  0.204E+00  0.763E-08  0.102E+00  0.102E+00
 -10.964  0.199E+00  0.134E-07  0.997E-01  0.997E-01
 -10.954  0.194E+00  0.231E-07  0.971E-01  0.971E-01
 -10.944  0.188E+00  0.397E-07  0.940E-01  0.940E-01
 -10.934  0.181E+00  0.673E-07  0.907E-01  0.907E-01
 -10.924  0.174E+00  0.113E-06  0.870E-01  0.870E-01
 -10.914  0.166E+00  0.188E-06  0.832E-01  0.832E-01
 -10.904  0.159E+00  0.309E-06  0.793E-01  0.793E-01
 -10.894  0.151E+00  0.503E-06  0.753E-01  0.753E-01
 -10.884  0.143E+00  0.810E-06  0.715E-01  0.715E-01
 -10.874  0.135E+00  0.129E-05  0.677E-01  0.677E-01
 -10.864  0.128E+00  0.204E-05  0.642E-01  0.642E-01
 -10.854  0.122E+00  0.318E-05  0.609E-01  0.609E-01
 -10.844  0.116E+00  0.492E-05  0.580E-01  0.580E-01
 -10.834  0.111E+00  0.752E-05  0.555E-01  0.555E-01
 -10.824  0.107E+00  0.114E-04  0.535E-01  0.535E-01
 -10.814  0.104E+00  0.171E-04  0.519E-01  0.519E-01
 -10.804  0.102E+00  0.253E-04  0.509E-01  0.509E-01
 -10.794  0.101E+00  0.372E-04  0.504E-01  0.504E-01
 -10.784  0.101E+00  0.541E-04  0.504E-01  0.504E-01
 -10.774  0.102E+00  0.778E-04  0.511E-01  0.511E-01
 -10.764  0.105E+00  0.111E-03  0.523E-01  0.523E-01
 -10.754  0.108E+00  0.156E-03  0.540E-01  0.540E-01
 -10.744  0.113E+00  0.218E-03  0.563E-01  0.563E-01
 -10.734  0.118E+00  0.302E-03  0.590E-01  0.590E-01
 -10.724  0.125E+00  0.413E-03  0.622E-01  0.622E-01
 -10.714  0.132E+00  0.560E-03  0.657E-01  0.657E-01
 -10.704  0.140E+00  0.751E-03  0.696E-01  0.696E-01
 -10.694  0.148E+00  0.998E-03  0.736E-01  0.736E-01
 -10.684  0.157E+00  0.131E-02  0.778E-01  0.778E-01
 -10.674  0.166E+00  0.171E-02  0.819E-01  0.819E-01
 -10.664  0.174E+00  0.221E-02  0.860E-01  0.860E-01
 -10.654  0.183E+00  0.282E-02  0.899E-01  0.899E-01
 -10.644  0.191E+00  0.357E-02  0.935E-01  0.935E-01
 -10.634  0.198E+00  0.448E-02  0.968E-01  0.968E-01
 -10.624  0.205E+00  0.557E-02  0.996E-01  0.996E-01
 -10.614  0.211E+00  0.685E-02  0.102E+00  0.102E+00
 -10.604  0.216E+00  0.836E-02  0.104E+00  0.104E+00
 -10.594  0.220E+00  0.101E-01  0.105E+00  0.105E+00
 -10.584  0.223E+00  0.121E-01  0.106E+00  0.106E+00
 -10.574  0.226E+00  0.144E-01  0.106E+00  0.106E+00
 -10.564  0.227E+00  0.169E-01  0.105E+00  0.105E+00
 -10.554  0.228E+00  0.197E-01  0.104E+00  0.104E+00
 -10.544  0.229E+00  0.228E-01  0.103E+00  0.103E+00
 -10.534  0.229E+00  0.262E-01  0.101E+00  0.101E+00
 -10.524  0.228E+00  0.298E-01  0.992E-01  0.992E-01
 -10.514  0.228E+00  0.336E-01  0.970E-01  0.970E-01
 -10.504  0.227E+00  0.377E-01  0.947E-01  0.947E-01
 -10.494  0.226E+00  0.419E-01  0.923E-01  0.923E-01
 -10.484  0.226E+00  0.462E-01  0.900E-01  0.900E-01
 -10.474  0.226E+00  0.506E-01  0.878E-01  0.878E-01
 -10.464  0.226E+00  0.550E-01  0.857E-01  0.857E-01
 -10.454  0.227E+00  0.594E-01  0.838E-01  0.838E-01
 -10.444  0.228E+00  0.638E-01  0.822E-01  0.822E-01
 -10.434  0.230E+00  0.680E-01  0.808E-01  0.808E-01
 -10.424  0.232E+00  0.721E-01  0.797E-01  0.797E-01
 -10.414  0.234E+00  0.760E-01  0.789E-01  0.789E-01
 -10.404  0.236E+00  0.797E-01  0.784E-01  0.784E-01
 -10.394  0.239E+00  0.831E-01  0.781E-01  0.781E-01
 -10.384  0.242E+00  0.863E-01  0.781E-01  0.781E-01
 -10.374  0.246E+00  0.892E-01  0.783E-01  0.783E-01
 -10.364  0.249E+00  0.919E-01  0.787E-01  0.787E-01
 -10.354  0.253E+00  0.942E-01  0.793E-01  0.793E-01
 -10.344  0.256E+00  0.963E-01  0.800E-01  0.800E-01
 -10.334  0.260E+00  0.981E-01  0.808E-01  0.808E-01
 -10.324  0.263E+00  0.997E-01  0.817E-01  0.817E-01
 -10.314  0.266E+00  0.101E+00  0.825E-01  0.825E-01
 -10.304  0.269E+00  0.102E+00  0.834E-01  0.834E-01
 -10.294  0.271E+00  0.103E+00  0.841E-01  0.841E-01
 -10.284  0.274E+00  0.104E+00  0.848E-01  0.848E-01
 -10.274  0.275E+00  0.105E+00  0.853E-01  0.853E-01
 -10.264  0.277E+00  0.105E+00  0.856E-01  0.856E-01
 -10.254  0.277E+00  0.106E+00  0.857E-01  0.857E-01
 -10.244  0.278E+00  0.106E+00  0.857E-01  0.857E-01
 -10.234  0.278E+00  0.107E+00  0.855E-01  0.855E-01
 -10.224  0.277E+00  0.107E+00  0.851E-01  0.851E-01
 -10.214  0.276E+00  0.107E+00  0.846E-01  0.846E-01
 -10.204  0.275E+00  0.107E+00  0.840E-01  0.840E-01
 -10.194  0.274E+00  0.107E+00  0.833E-01  0.833E-01
 -10.184  0.273E+00  0.107E+00  0.827E-01  0.827E-01
 -10.174  0.272E+00  0.107E+00  0.822E-01  0.822E-01
 -10.164  0.271E+00  0.108E+00  0.818E-01  0.818E-01
 -10.154  0.271E+00  0.108E+00  0.815E-01  0.815E-01
 -10.144  0.271E+00  0.108E+00  0.815E-01  0.815E-01
 -10.134  0.271E+00  0.108E+00  0.817E-01  0.817E-01
 -10.124  0.272E+00  0.108E+00  0.822E-01  0.822E-01
 -10.114  0.273E+00  0.108E+00  0.829E-01  0.829E-01
 -10.104  0.275E+00  0.108E+00  0.839E-01  0.839E-01
 -10.094  0.278E+00  0.108E+00  0.850E-01  0.850E-01
 -10.084  0.281E+00  0.108E+00  0.864E-01  0.864E-01
 -10.074  0.284E+00  0.108E+00  0.878E-01  0.878E-01
 -10.064  0.287E+00  0.108E+00  0.893E-01  0.893E-01
 -10.054  0.290E+00  0.108E+00  0.908E-01  0.908E-01
 -10.044  0.293E+00  0.109E+00  0.923E-01  0.923E-01
 -10.034  0.296E+00  0.109E+00  0.937E-01  0.937E-01
 -10.024  0.299E+00  0.109E+00  0.951E-01  0.951E-01
 -10.014  0.302E+00  0.109E+00  0.963E-01  0.963E-01
 -10.004  0.304E+00  0.109E+00  0.974E-01  0.974E-01
  -9.994  0.306E+00  0.109E+00  0.983E-01  0.983E-01
  -9.984  0.307E+00  0.109E+00  0.992E-01  0.992E-01
  -9.974  0.309E+00  0.109E+00  0.100E+00  0.100E+00
  -9.964  0.310E+00  0.109E+00  0.101E+00  0.101E+00
  -9.954  0.311E+00  0.108E+00  0.101E+00  0.101E+00
  -9.944  0.312E+00  0.108E+00  0.102E+00  0.102E+00
  -9.934  0.313E+00  0.108E+00  0.103E+00  0.103E+00
  -9.924  0.314E+00  0.108E+00  0.103E+00  0.103E+00
  -9.914  0.315E+00  0.107E+00  0.104E+00  0.104E+00
  -9.904  0.316E+00  0.107E+00  0.104E+00  0.104E+00
  -9.894  0.317E+00  0.108E+00  0.105E+00  0.105E+00
  -9.884  0.318E+00  0.108E+00  0.105E+00  0.105E+00
  -9.874  0.318E+00  0.108E+00  0.105E+00  0.105E+00
  -9.864  0.319E+00  0.108E+00  0.105E+00  0.105E+00
  -9.854  0.319E+00  0.109E+00  0.105E+00  0.105E+00
  -9.844  0.319E+00  0.110E+00  0.105E+00  0.105E+00
  -9.834  0.318E+00  0.110E+00  0.104E+00  0.104E+00
  -9.824  0.317E+00  0.111E+00  0.103E+00  0.103E+00
  -9.814  0.315E+00  0.111E+00  0.102E+00  0.102E+00
  -9.804  0.312E+00  0.111E+00  0.100E+00  0.100E+00
  -9.794  0.309E+00  0.112E+00  0.984E-01  0.984E-01
  -9.784  0.305E+00  0.112E+00  0.964E-01  0.964E-01
  -9.774  0.300E+00  0.112E+00  0.943E-01  0.943E-01
  -9.764  0.295E+00  0.111E+00  0.920E-01  0.920E-01
  -9.754  0.290E+00  0.111E+00  0.897E-01  0.897E-01
  -9.744  0.285E+00  0.110E+00  0.875E-01  0.875E-01
  -9.734  0.280E+00  0.110E+00  0.854E-01  0.854E-01
  -9.724  0.276E+00  0.109E+00  0.835E-01  0.835E-01
  -9.714  0.272E+00  0.108E+00  0.819E-01  0.819E-01
  -9.704  0.269E+00  0.107E+00  0.806E-01  0.806E-01
  -9.694  0.266E+00  0.107E+00  0.797E-01  0.797E-01
  -9.684  0.265E+00  0.106E+00  0.793E-01  0.793E-01
  -9.674  0.265E+00  0.106E+00  0.794E-01  0.794E-01
  -9.664  0.266E+00  0.106E+00  0.799E-01  0.799E-01
  -9.654  0.268E+00  0.106E+00  0.809E-01  0.809E-01
  -9.644  0.272E+00  0.107E+00  0.824E-01  0.824E-01
  -9.634  0.277E+00  0.108E+00  0.844E-01  0.844E-01
  -9.624  0.282E+00  0.109E+00  0.868E-01  0.868E-01
  -9.614  0.289E+00  0.110E+00  0.896E-01  0.896E-01
  -9.604  0.296E+00  0.111E+00  0.927E-01  0.927E-01
  -9.594  0.304E+00  0.112E+00  0.961E-01  0.961E-01
  -9.584  0.312E+00  0.113E+00  0.996E-01  0.996E-01
  -9.574  0.321E+00  0.114E+00  0.103E+00  0.103E+00
  -9.564  0.329E+00  0.115E+00  0.107E+00  0.107E+00
  -9.554  0.337E+00  0.115E+00  0.111E+00  0.111E+00
  -9.544  0.344E+00  0.116E+00  0.114E+00  0.114E+00
  -9.534  0.351E+00  0.116E+00  0.118E+00  0.118E+00
  -9.524  0.357E+00  0.116E+00  0.121E+00  0.121E+00
  -9.514  0.362E+00  0.115E+00  0.123E+00  0.123E+00
  -9.504  0.365E+00  0.114E+00  0.126E+00  0.126E+00
  -9.494  0.367E+00  0.113E+00  0.127E+00  0.127E+00
  -9.484  0.368E+00  0.112E+00  0.128E+00  0.128E+00
  -9.474  0.368E+00  0.110E+00  0.129E+00  0.129E+00
  -9.464  0.366E+00  0.109E+00  0.129E+00  0.129E+00
  -9.454  0.364E+00  0.108E+00  0.128E+00  0.128E+00
  -9.444  0.359E+00  0.106E+00  0.127E+00  0.127E+00
  -9.434  0.354E+00  0.105E+00  0.125E+00  0.125E+00
  -9.424  0.349E+00  0.105E+00  0.122E+00  0.122E+00
  -9.414  0.342E+00  0.104E+00  0.119E+00  0.119E+00
  -9.404  0.335E+00  0.104E+00  0.116E+00  0.116E+00
  -9.394  0.328E+00  0.104E+00  0.112E+00  0.112E+00
  -9.384  0.321E+00  0.105E+00  0.108E+00  0.108E+00
  -9.374  0.315E+00  0.106E+00  0.105E+00  0.105E+00
  -9.364  0.309E+00  0.107E+00  0.101E+00  0.101E+00
  -9.354  0.303E+00  0.108E+00  0.975E-01  0.975E-01
  -9.344  0.299E+00  0.110E+00  0.944E-01  0.944E-01
  -9.334  0.296E+00  0.112E+00  0.919E-01  0.919E-01
  -9.324  0.293E+00  0.114E+00  0.899E-01  0.899E-01
  -9.314  0.292E+00  0.115E+00  0.885E-01  0.885E-01
  -9.304  0.293E+00  0.117E+00  0.878E-01  0.878E-01
  -9.294  0.294E+00  0.119E+00  0.877E-01  0.877E-01
  -9.284  0.297E+00  0.120E+00  0.884E-01  0.884E-01
  -9.274  0.300E+00  0.121E+00  0.898E-01  0.898E-01
  -9.264  0.305E+00  0.121E+00  0.918E-01  0.918E-01
  -9.254  0.310E+00  0.121E+00  0.944E-01  0.944E-01
  -9.244  0.316E+00  0.121E+00  0.976E-01  0.976E-01
  -9.234  0.322E+00  0.120E+00  0.101E+00  0.101E+00
  -9.224  0.329E+00  0.119E+00  0.105E+00  0.105E+00
  -9.214  0.336E+00  0.117E+00  0.109E+00  0.109E+00
  -9.204  0.343E+00  0.115E+00  0.114E+00  0.114E+00
  -9.194  0.350E+00  0.113E+00  0.118E+00  0.118E+00
  -9.184  0.356E+00  0.111E+00  0.123E+00  0.123E+00
  -9.174  0.363E+00  0.109E+00  0.127E+00  0.127E+00
  -9.164  0.369E+00  0.107E+00  0.131E+00  0.131E+00
  -9.154  0.374E+00  0.105E+00  0.134E+00  0.134E+00
  -9.144  0.379E+00  0.104E+00  0.138E+00  0.138E+00
  -9.134  0.383E+00  0.103E+00  0.140E+00  0.140E+00
  -9.124  0.387E+00  0.102E+00  0.142E+00  0.142E+00
  -9.114  0.389E+00  0.102E+00  0.144E+00  0.144E+00
  -9.104  0.391E+00  0.102E+00  0.145E+00  0.145E+00
  -9.094  0.392E+00  0.102E+00  0.145E+00  0.145E+00
  -9.084  0.392E+00  0.103E+00  0.144E+00  0.144E+00
  -9.074  0.391E+00  0.104E+00  0.143E+00  0.143E+00
  -9.064  0.389E+00  0.106E+00  0.142E+00  0.142E+00
  -9.054  0.387E+00  0.108E+00  0.140E+00  0.140E+00
  -9.044  0.384E+00  0.110E+00  0.137E+00  0.137E+00
  -9.034  0.381E+00  0.112E+00  0.134E+00  0.134E+00
  -9.024  0.377E+00  0.114E+00  0.131E+00  0.131E+00
  -9.014  0.374E+00  0.117E+00  0.128E+00  0.128E+00
  -9.004  0.370E+00  0.119E+00  0.126E+00  0.126E+00
  -8.994  0.367E+00  0.121E+00  0.123E+00  0.123E+00
  -8.984  0.365E+00  0.123E+00  0.121E+00  0.121E+00
  -8.974  0.363E+00  0.124E+00  0.119E+00  0.119E+00
  -8.964  0.361E+00  0.126E+00  0.118E+00  0.118E+00
  -8.954  0.361E+00  0.126E+00  0.117E+00  0.117E+00
  -8.944  0.361E+00  0.126E+00  0.117E+00  0.117E+00
  -8.934  0.362E+00  0.126E+00  0.118E+00  0.118E+00
  -8.924  0.364E+00  0.125E+00  0.119E+00  0.119E+00
  -8.914  0.366E+00  0.124E+00  0.121E+00  0.121E+00
  -8.904  0.369E+00  0.123E+00  0.123E+00  0.123E+00
  -8.894  0.372E+00  0.121E+00  0.126E+00  0.126E+00
  -8.884  0.376E+00  0.118E+00  0.129E+00  0.129E+00
  -8.874  0.380E+00  0.116E+00  0.132E+00  0.132E+00
  -8.864  0.384E+00  0.113E+00  0.135E+00  0.135E+00
  -8.854  0.388E+00  0.111E+00  0.139E+00  0.139E+00
  -8.844  0.393E+00  0.108E+00  0.143E+00  0.143E+00
  -8.834  0.397E+00  0.105E+00  0.146E+00  0.146E+00
  -8.824  0.402E+00  0.103E+00  0.149E+00  0.149E+00
  -8.814  0.407E+00  0.101E+00  0.153E+00  0.153E+00
  -8.804  0.412E+00  0.100E+00  0.156E+00  0.156E+00
  -8.794  0.417E+00  0.990E-01  0.159E+00  0.159E+00
  -8.784  0.422E+00  0.985E-01  0.162E+00  0.162E+00
  -8.774  0.428E+00  0.986E-01  0.165E+00  0.165E+00
  -8.764  0.434E+00  0.993E-01  0.168E+00  0.168E+00
  -8.754  0.441E+00  0.100E+00  0.170E+00  0.170E+00
  -8.744  0.448E+00  0.102E+00  0.173E+00  0.173E+00
  -8.734  0.456E+00  0.104E+00  0.176E+00  0.176E+00
  -8.724  0.464E+00  0.106E+00  0.179E+00  0.179E+00
  -8.714  0.472E+00  0.109E+00  0.181E+00  0.181E+00
  -8.704  0.480E+00  0.112E+00  0.184E+00  0.184E+00
  -8.694  0.488E+00  0.115E+00  0.187E+00  0.187E+00
  -8.684  0.496E+00  0.118E+00  0.189E+00  0.189E+00
  -8.674  0.504E+00  0.121E+00  0.192E+00  0.192E+00
  -8.664  0.511E+00  0.123E+00  0.194E+00  0.194E+00
  -8.654  0.517E+00  0.126E+00  0.196E+00  0.196E+00
  -8.644  0.523E+00  0.128E+00  0.198E+00  0.198E+00
  -8.634  0.527E+00  0.129E+00  0.199E+00  0.199E+00
  -8.624  0.529E+00  0.130E+00  0.200E+00  0.200E+00
  -8.614  0.531E+00  0.131E+00  0.200E+00  0.200E+00
  -8.604  0.530E+00  0.131E+00  0.200E+00  0.200E+00
  -8.594  0.528E+00  0.131E+00  0.199E+00  0.199E+00
  -8.584  0.525E+00  0.130E+00  0.197E+00  0.197E+00
  -8.574  0.520E+00  0.129E+00  0.195E+00  0.195E+00
  -8.564  0.513E+00  0.128E+00  0.192E+00  0.192E+00
  -8.554  0.505E+00  0.126E+00  0.189E+00  0.189E+00
  -8.544  0.495E+00  0.124E+00  0.186E+00  0.186E+00
  -8.534  0.485E+00  0.122E+00  0.182E+00  0.182E+00
  -8.524  0.474E+00  0.119E+00  0.178E+00  0.178E+00
  -8.514  0.463E+00  0.116E+00  0.173E+00  0.173E+00
  -8.504  0.451E+00  0.114E+00  0.169E+00  0.169E+00
  -8.494  0.439E+00  0.111E+00  0.164E+00  0.164E+00
  -8.484  0.428E+00  0.108E+00  0.160E+00  0.160E+00
  -8.474  0.417E+00  0.105E+00  0.156E+00  0.156E+00
  -8.464  0.408E+00  0.103E+00  0.152E+00  0.152E+00
  -8.454  0.399E+00  0.101E+00  0.149E+00  0.149E+00
  -8.444  0.392E+00  0.992E-01  0.146E+00  0.146E+00
  -8.434  0.385E+00  0.979E-01  0.144E+00  0.144E+00
  -8.424  0.381E+00  0.970E-01  0.142E+00  0.142E+00
  -8.414  0.378E+00  0.965E-01  0.141E+00  0.141E+00
  -8.404  0.376E+00  0.967E-01  0.140E+00  0.140E+00
  -8.394  0.376E+00  0.974E-01  0.139E+00  0.139E+00
  -8.384  0.377E+00  0.987E-01  0.139E+00  0.139E+00
  -8.374  0.379E+00  0.100E+00  0.139E+00  0.139E+00
  -8.364  0.381E+00  0.103E+00  0.139E+00  0.139E+00
  -8.354  0.385E+00  0.106E+00  0.140E+00  0.140E+00
  -8.344  0.389E+00  0.109E+00  0.140E+00  0.140E+00
  -8.334  0.392E+00  0.112E+00  0.140E+00  0.140E+00
  -8.324  0.396E+00  0.116E+00  0.140E+00  0.140E+00
  -8.314  0.399E+00  0.120E+00  0.140E+00  0.140E+00
  -8.304  0.402E+00  0.123E+00  0.139E+00  0.139E+00
  -8.294  0.404E+00  0.127E+00  0.139E+00  0.139E+00
  -8.284  0.406E+00  0.130E+00  0.138E+00  0.138E+00
  -8.274  0.406E+00  0.133E+00  0.137E+00  0.137E+00
  -8.264  0.406E+00  0.135E+00  0.135E+00  0.135E+00
  -8.254  0.404E+00  0.137E+00  0.134E+00  0.134E+00
  -8.244  0.402E+00  0.138E+00  0.132E+00  0.132E+00
  -8.234  0.399E+00  0.138E+00  0.131E+00  0.131E+00
  -8.224  0.396E+00  0.138E+00  0.129E+00  0.129E+00
  -8.214  0.392E+00  0.137E+00  0.128E+00  0.128E+00
  -8.204  0.389E+00  0.136E+00  0.126E+00  0.126E+00
  -8.194  0.384E+00  0.134E+00  0.125E+00  0.125E+00
  -8.184  0.380E+00  0.132E+00  0.124E+00  0.124E+00
  -8.174  0.376E+00  0.130E+00  0.123E+00  0.123E+00
  -8.164  0.373E+00  0.127E+00  0.123E+00  0.123E+00
  -8.154  0.369E+00  0.124E+00  0.122E+00  0.122E+00
  -8.144  0.365E+00  0.121E+00  0.122E+00  0.122E+00
  -8.134  0.362E+00  0.118E+00  0.122E+00  0.122E+00
  -8.124  0.358E+00  0.115E+00  0.122E+00  0.122E+00
  -8.114  0.355E+00  0.112E+00  0.122E+00  0.122E+00
  -8.104  0.352E+00  0.110E+00  0.121E+00  0.121E+00
  -8.094  0.349E+00  0.107E+00  0.121E+00  0.121E+00
  -8.084  0.346E+00  0.105E+00  0.120E+00  0.120E+00
  -8.074  0.342E+00  0.103E+00  0.120E+00  0.120E+00
  -8.064  0.339E+00  0.101E+00  0.119E+00  0.119E+00
  -8.054  0.336E+00  0.998E-01  0.118E+00  0.118E+00
  -8.044  0.334E+00  0.988E-01  0.117E+00  0.117E+00
  -8.034  0.331E+00  0.980E-01  0.116E+00  0.116E+00
  -8.024  0.329E+00  0.976E-01  0.116E+00  0.116E+00
  -8.014  0.327E+00  0.976E-01  0.115E+00  0.115E+00
  -8.004  0.326E+00  0.980E-01  0.114E+00  0.114E+00
  -7.994  0.325E+00  0.988E-01  0.113E+00  0.113E+00
  -7.984  0.325E+00  0.999E-01  0.112E+00  0.112E+00
  -7.974  0.325E+00  0.102E+00  0.112E+00  0.112E+00
  -7.964  0.326E+00  0.104E+00  0.111E+00  0.111E+00
  -7.954  0.327E+00  0.106E+00  0.111E+00  0.111E+00
  -7.944  0.329E+00  0.109E+00  0.110E+00  0.110E+00
  -7.934  0.331E+00  0.112E+00  0.109E+00  0.109E+00
  -7.924  0.333E+00  0.115E+00  0.109E+00  0.109E+00
  -7.914  0.335E+00  0.119E+00  0.108E+00  0.108E+00
  -7.904  0.336E+00  0.123E+00  0.107E+00  0.107E+00
  -7.894  0.337E+00  0.127E+00  0.105E+00  0.105E+00
  -7.884  0.338E+00  0.130E+00  0.104E+00  0.104E+00
  -7.874  0.338E+00  0.134E+00  0.102E+00  0.102E+00
  -7.864  0.338E+00  0.137E+00  0.100E+00  0.100E+00
  -7.854  0.337E+00  0.140E+00  0.984E-01  0.984E-01
  -7.844  0.335E+00  0.142E+00  0.963E-01  0.963E-01
  -7.834  0.332E+00  0.144E+00  0.942E-01  0.942E-01
  -7.824  0.329E+00  0.145E+00  0.921E-01  0.921E-01
  -7.814  0.326E+00  0.145E+00  0.902E-01  0.902E-01
  -7.804  0.322E+00  0.145E+00  0.885E-01  0.885E-01
  -7.794  0.318E+00  0.144E+00  0.870E-01  0.870E-01
  -7.784  0.314E+00  0.142E+00  0.859E-01  0.859E-01
  -7.774  0.310E+00  0.140E+00  0.851E-01  0.851E-01
  -7.764  0.306E+00  0.137E+00  0.848E-01  0.848E-01
  -7.754  0.303E+00  0.134E+00  0.849E-01  0.849E-01
  -7.744  0.301E+00  0.130E+00  0.855E-01  0.855E-01
  -7.734  0.300E+00  0.126E+00  0.866E-01  0.866E-01
  -7.724  0.299E+00  0.123E+00  0.881E-01  0.881E-01
  -7.714  0.299E+00  0.119E+00  0.901E-01  0.901E-01
  -7.704  0.300E+00  0.115E+00  0.924E-01  0.924E-01
  -7.694  0.301E+00  0.111E+00  0.950E-01  0.950E-01
  -7.684  0.304E+00  0.108E+00  0.978E-01  0.978E-01
  -7.674  0.306E+00  0.105E+00  0.101E+00  0.101E+00
  -7.664  0.310E+00  0.103E+00  0.104E+00  0.104E+00
  -7.654  0.313E+00  0.100E+00  0.106E+00  0.106E+00
  -7.644  0.317E+00  0.986E-01  0.109E+00  0.109E+00
  -7.634  0.320E+00  0.973E-01  0.111E+00  0.111E+00
  -7.624  0.323E+00  0.965E-01  0.113E+00  0.113E+00
  -7.614  0.326E+00  0.961E-01  0.115E+00  0.115E+00
  -7.604  0.328E+00  0.962E-01  0.116E+00  0.116E+00
  -7.594  0.330E+00  0.967E-01  0.116E+00  0.116E+00
  -7.584  0.330E+00  0.977E-01  0.116E+00  0.116E+00
  -7.574  0.330E+00  0.990E-01  0.115E+00  0.115E+00
  -7.564  0.329E+00  0.101E+00  0.114E+00  0.114E+00
  -7.554  0.327E+00  0.103E+00  0.112E+00  0.112E+00
  -7.544  0.324E+00  0.105E+00  0.110E+00  0.110E+00
  -7.534  0.321E+00  0.108E+00  0.107E+00  0.107E+00
  -7.524  0.317E+00  0.111E+00  0.103E+00  0.103E+00
  -7.514  0.313E+00  0.114E+00  0.998E-01  0.998E-01
  -7.504  0.309E+00  0.117E+00  0.961E-01  0.961E-01
  -7.494  0.305E+00  0.120E+00  0.924E-01  0.924E-01
  -7.484  0.301E+00  0.123E+00  0.887E-01  0.887E-01
  -7.474  0.297E+00  0.126E+00  0.853E-01  0.853E-01
  -7.464  0.294E+00  0.130E+00  0.820E-01  0.820E-01
  -7.454  0.291E+00  0.133E+00  0.791E-01  0.791E-01
  -7.444  0.289E+00  0.136E+00  0.766E-01  0.766E-01
  -7.434  0.287E+00  0.138E+00  0.746E-01  0.746E-01
  -7.424  0.287E+00  0.141E+00  0.730E-01  0.730E-01
  -7.414  0.287E+00  0.143E+00  0.719E-01  0.719E-01
  -7.404  0.287E+00  0.145E+00  0.712E-01  0.712E-01
  -7.394  0.288E+00  0.146E+00  0.710E-01  0.710E-01
  -7.384  0.289E+00  0.147E+00  0.712E-01  0.712E-01
  -7.374  0.291E+00  0.148E+00  0.718E-01  0.718E-01
  -7.364  0.293E+00  0.148E+00  0.726E-01  0.726E-01
  -7.354  0.294E+00  0.147E+00  0.737E-01  0.737E-01
  -7.344  0.296E+00  0.146E+00  0.750E-01  0.750E-01
  -7.334  0.297E+00  0.145E+00  0.764E-01  0.764E-01
  -7.324  0.298E+00  0.143E+00  0.778E-01  0.778E-01
  -7.314  0.298E+00  0.140E+00  0.792E-01  0.792E-01
  -7.304  0.298E+00  0.137E+00  0.805E-01  0.805E-01
  -7.294  0.298E+00  0.134E+00  0.817E-01  0.817E-01
  -7.284  0.296E+00  0.131E+00  0.828E-01  0.828E-01
  -7.274  0.294E+00  0.127E+00  0.837E-01  0.837E-01
  -7.264  0.292E+00  0.123E+00  0.844E-01  0.844E-01
  -7.254  0.289E+00  0.119E+00  0.849E-01  0.849E-01
  -7.244  0.286E+00  0.115E+00  0.853E-01  0.853E-01
  -7.234  0.282E+00  0.111E+00  0.855E-01  0.855E-01
  -7.224  0.279E+00  0.108E+00  0.855E-01  0.855E-01
  -7.214  0.276E+00  0.105E+00  0.855E-01  0.855E-01
  -7.204  0.272E+00  0.101E+00  0.854E-01  0.854E-01
  -7.194  0.269E+00  0.989E-01  0.853E-01  0.853E-01
  -7.184  0.267E+00  0.967E-01  0.851E-01  0.851E-01
  -7.174  0.265E+00  0.950E-01  0.851E-01  0.851E-01
  -7.164  0.264E+00  0.938E-01  0.851E-01  0.851E-01
  -7.154  0.264E+00  0.933E-01  0.851E-01  0.851E-01
  -7.144  0.264E+00  0.933E-01  0.854E-01  0.854E-01
  -7.134  0.265E+00  0.939E-01  0.857E-01  0.857E-01
  -7.124  0.267E+00  0.950E-01  0.861E-01  0.861E-01
  -7.114  0.270E+00  0.968E-01  0.866E-01  0.866E-01
  -7.104  0.274E+00  0.991E-01  0.872E-01  0.872E-01
  -7.094  0.278E+00  0.102E+00  0.879E-01  0.879E-01
  -7.084  0.282E+00  0.105E+00  0.885E-01  0.885E-01
  -7.074  0.287E+00  0.109E+00  0.891E-01  0.891E-01
  -7.064  0.292E+00  0.113E+00  0.897E-01  0.897E-01
  -7.054  0.297E+00  0.117E+00  0.901E-01  0.901E-01
  -7.044  0.302E+00  0.121E+00  0.903E-01  0.903E-01
  -7.034  0.307E+00  0.126E+00  0.904E-01  0.904E-01
  -7.024  0.310E+00  0.130E+00  0.902E-01  0.902E-01
  -7.014  0.314E+00  0.134E+00  0.897E-01  0.897E-01
  -7.004  0.316E+00  0.138E+00  0.890E-01  0.890E-01
  -6.994  0.317E+00  0.141E+00  0.880E-01  0.880E-01
  -6.984  0.318E+00  0.144E+00  0.867E-01  0.867E-01
  -6.974  0.317E+00  0.147E+00  0.851E-01  0.851E-01
  -6.964  0.316E+00  0.149E+00  0.833E-01  0.833E-01
  -6.954  0.313E+00  0.151E+00  0.813E-01  0.813E-01
  -6.944  0.310E+00  0.151E+00  0.790E-01  0.790E-01
  -6.934  0.305E+00  0.152E+00  0.766E-01  0.766E-01
  -6.924  0.300E+00  0.152E+00  0.741E-01  0.741E-01
  -6.914  0.295E+00  0.151E+00  0.716E-01  0.716E-01
  -6.904  0.289E+00  0.151E+00  0.690E-01  0.690E-01
  -6.894  0.282E+00  0.149E+00  0.665E-01  0.665E-01
  -6.884  0.276E+00  0.148E+00  0.642E-01  0.642E-01
  -6.874  0.270E+00  0.146E+00  0.620E-01  0.620E-01
  -6.864  0.264E+00  0.144E+00  0.600E-01  0.600E-01
  -6.854  0.259E+00  0.142E+00  0.583E-01  0.583E-01
  -6.844  0.254E+00  0.140E+00  0.569E-01  0.569E-01
  -6.834  0.250E+00  0.138E+00  0.559E-01  0.559E-01
  -6.824  0.246E+00  0.135E+00  0.553E-01  0.553E-01
  -6.814  0.243E+00  0.133E+00  0.552E-01  0.552E-01
  -6.804  0.241E+00  0.130E+00  0.554E-01  0.554E-01
  -6.794  0.240E+00  0.128E+00  0.561E-01  0.561E-01
  -6.784  0.239E+00  0.125E+00  0.573E-01  0.573E-01
  -6.774  0.240E+00  0.122E+00  0.589E-01  0.589E-01
  -6.764  0.240E+00  0.119E+00  0.608E-01  0.608E-01
  -6.754  0.242E+00  0.116E+00  0.632E-01  0.632E-01
  -6.744  0.244E+00  0.113E+00  0.658E-01  0.658E-01
  -6.734  0.247E+00  0.110E+00  0.687E-01  0.687E-01
  -6.724  0.250E+00  0.107E+00  0.717E-01  0.717E-01
  -6.714  0.254E+00  0.104E+00  0.748E-01  0.748E-01
  -6.704  0.258E+00  0.102E+00  0.780E-01  0.780E-01
  -6.694  0.262E+00  0.995E-01  0.810E-01  0.810E-01
  -6.684  0.265E+00  0.976E-01  0.839E-01  0.839E-01
  -6.674  0.269E+00  0.962E-01  0.865E-01  0.865E-01
  -6.664  0.273E+00  0.953E-01  0.888E-01  0.888E-01
  -6.654  0.276E+00  0.949E-01  0.906E-01  0.906E-01
  -6.644  0.279E+00  0.950E-01  0.920E-01  0.920E-01
  -6.634  0.282E+00  0.958E-01  0.928E-01  0.928E-01
  -6.624  0.284E+00  0.973E-01  0.931E-01  0.931E-01
  -6.614  0.285E+00  0.994E-01  0.929E-01  0.929E-01
  -6.604  0.286E+00  0.102E+00  0.920E-01  0.920E-01
  -6.594  0.287E+00  0.105E+00  0.906E-01  0.906E-01
  -6.584  0.287E+00  0.109E+00  0.887E-01  0.887E-01
  -6.574  0.286E+00  0.114E+00  0.864E-01  0.864E-01
  -6.564  0.286E+00  0.119E+00  0.836E-01  0.836E-01
  -6.554  0.285E+00  0.124E+00  0.805E-01  0.805E-01
  -6.544  0.283E+00  0.129E+00  0.772E-01  0.772E-01
  -6.534  0.282E+00  0.134E+00  0.737E-01  0.737E-01
  -6.524  0.280E+00  0.140E+00  0.701E-01  0.701E-01
  -6.514  0.278E+00  0.145E+00  0.665E-01  0.665E-01
  -6.504  0.276E+00  0.149E+00  0.631E-01  0.631E-01
  -6.494  0.273E+00  0.154E+00  0.598E-01  0.598E-01
  -6.484  0.271E+00  0.157E+00  0.568E-01  0.568E-01
  -6.474  0.269E+00  0.160E+00  0.542E-01  0.542E-01
  -6.464  0.266E+00  0.162E+00  0.520E-01  0.520E-01
  -6.454  0.264E+00  0.164E+00  0.502E-01  0.502E-01
  -6.444  0.262E+00  0.164E+00  0.489E-01  0.489E-01
  -6.434  0.260E+00  0.164E+00  0.481E-01  0.481E-01
  -6.424  0.259E+00  0.163E+00  0.478E-01  0.478E-01
  -6.414  0.258E+00  0.162E+00  0.481E-01  0.481E-01
  -6.404  0.257E+00  0.159E+00  0.489E-01  0.489E-01
  -6.394  0.257E+00  0.157E+00  0.503E-01  0.503E-01
  -6.384  0.258E+00  0.154E+00  0.520E-01  0.520E-01
  -6.374  0.259E+00  0.150E+00  0.542E-01  0.542E-01
  -6.364  0.260E+00  0.147E+00  0.567E-01  0.567E-01
  -6.354  0.262E+00  0.143E+00  0.595E-01  0.595E-01
  -6.344  0.265E+00  0.140E+00  0.624E-01  0.624E-01
  -6.334  0.268E+00  0.137E+00  0.654E-01  0.654E-01
  -6.324  0.270E+00  0.134E+00  0.683E-01  0.683E-01
  -6.314  0.273E+00  0.131E+00  0.711E-01  0.711E-01
  -6.304  0.276E+00  0.128E+00  0.737E-01  0.737E-01
  -6.294  0.278E+00  0.126E+00  0.759E-01  0.759E-01
  -6.284  0.279E+00  0.124E+00  0.777E-01  0.777E-01
  -6.274  0.280E+00  0.122E+00  0.791E-01  0.791E-01
  -6.264  0.280E+00  0.120E+00  0.799E-01  0.799E-01
  -6.254  0.278E+00  0.118E+00  0.802E-01  0.802E-01
  -6.244  0.276E+00  0.116E+00  0.799E-01  0.799E-01
  -6.234  0.272E+00  0.114E+00  0.791E-01  0.791E-01
  -6.224  0.268E+00  0.112E+00  0.778E-01  0.778E-01
  -6.214  0.263E+00  0.110E+00  0.761E-01  0.761E-01
  -6.204  0.257E+00  0.109E+00  0.740E-01  0.740E-01
  -6.194  0.250E+00  0.107E+00  0.716E-01  0.716E-01
  -6.184  0.243E+00  0.105E+00  0.691E-01  0.691E-01
  -6.174  0.237E+00  0.104E+00  0.664E-01  0.664E-01
  -6.164  0.230E+00  0.103E+00  0.638E-01  0.638E-01
  -6.154  0.224E+00  0.102E+00  0.613E-01  0.613E-01
  -6.144  0.219E+00  0.101E+00  0.590E-01  0.590E-01
  -6.134  0.215E+00  0.101E+00  0.570E-01  0.570E-01
  -6.124  0.212E+00  0.102E+00  0.552E-01  0.552E-01
  -6.114  0.210E+00  0.103E+00  0.539E-01  0.539E-01
  -6.104  0.210E+00  0.104E+00  0.529E-01  0.529E-01
  -6.094  0.211E+00  0.107E+00  0.524E-01  0.524E-01
  -6.084  0.214E+00  0.109E+00  0.522E-01  0.522E-01
  -6.074  0.218E+00  0.113E+00  0.524E-01  0.524E-01
  -6.064  0.223E+00  0.117E+00  0.530E-01  0.530E-01
  -6.054  0.229E+00  0.122E+00  0.539E-01  0.539E-01
  -6.044  0.237E+00  0.127E+00  0.550E-01  0.550E-01
  -6.034  0.245E+00  0.132E+00  0.564E-01  0.564E-01
  -6.024  0.253E+00  0.137E+00  0.580E-01  0.580E-01
  -6.014  0.262E+00  0.143E+00  0.597E-01  0.597E-01
  -6.004  0.271E+00  0.149E+00  0.614E-01  0.614E-01
  -5.994  0.280E+00  0.154E+00  0.631E-01  0.631E-01
  -5.984  0.288E+00  0.159E+00  0.647E-01  0.647E-01
  -5.974  0.296E+00  0.164E+00  0.662E-01  0.662E-01
  -5.964  0.303E+00  0.168E+00  0.675E-01  0.675E-01
  -5.954  0.308E+00  0.171E+00  0.685E-01  0.685E-01
  -5.944  0.312E+00  0.173E+00  0.693E-01  0.693E-01
  -5.934  0.314E+00  0.175E+00  0.697E-01  0.697E-01
  -5.924  0.315E+00  0.176E+00  0.697E-01  0.697E-01
  -5.914  0.315E+00  0.176E+00  0.694E-01  0.694E-01
  -5.904  0.312E+00  0.175E+00  0.686E-01  0.686E-01
  -5.894  0.308E+00  0.173E+00  0.676E-01  0.676E-01
  -5.884  0.303E+00  0.171E+00  0.662E-01  0.662E-01
  -5.874  0.297E+00  0.168E+00  0.645E-01  0.645E-01
  -5.864  0.289E+00  0.164E+00  0.625E-01  0.625E-01
  -5.854  0.281E+00  0.160E+00  0.605E-01  0.605E-01
  -5.844  0.273E+00  0.156E+00  0.583E-01  0.583E-01
  -5.834  0.264E+00  0.152E+00  0.561E-01  0.561E-01
  -5.824  0.256E+00  0.147E+00  0.541E-01  0.541E-01
  -5.814  0.248E+00  0.143E+00  0.522E-01  0.522E-01
  -5.804  0.240E+00  0.139E+00  0.505E-01  0.505E-01
  -5.794  0.234E+00  0.136E+00  0.492E-01  0.492E-01
  -5.784  0.228E+00  0.132E+00  0.482E-01  0.482E-01
  -5.774  0.224E+00  0.129E+00  0.476E-01  0.476E-01
  -5.764  0.221E+00  0.126E+00  0.473E-01  0.473E-01
  -5.754  0.219E+00  0.124E+00  0.475E-01  0.475E-01
  -5.744  0.218E+00  0.122E+00  0.481E-01  0.481E-01
  -5.734  0.218E+00  0.120E+00  0.490E-01  0.490E-01
  -5.724  0.219E+00  0.119E+00  0.503E-01  0.503E-01
  -5.714  0.221E+00  0.117E+00  0.518E-01  0.518E-01
  -5.704  0.223E+00  0.116E+00  0.535E-01  0.535E-01
  -5.694  0.225E+00  0.115E+00  0.554E-01  0.554E-01
  -5.684  0.228E+00  0.114E+00  0.573E-01  0.573E-01
  -5.674  0.231E+00  0.113E+00  0.592E-01  0.592E-01
  -5.664  0.233E+00  0.112E+00  0.610E-01  0.610E-01
  -5.654  0.236E+00  0.111E+00  0.626E-01  0.626E-01
  -5.644  0.238E+00  0.110E+00  0.641E-01  0.641E-01
  -5.634  0.240E+00  0.109E+00  0.652E-01  0.652E-01
  -5.624  0.241E+00  0.109E+00  0.661E-01  0.661E-01
  -5.614  0.242E+00  0.109E+00  0.666E-01  0.666E-01
  -5.604  0.243E+00  0.109E+00  0.668E-01  0.668E-01
  -5.594  0.243E+00  0.110E+00  0.666E-01  0.666E-01
  -5.584  0.243E+00  0.111E+00  0.660E-01  0.660E-01
  -5.574  0.243E+00  0.113E+00  0.651E-01  0.651E-01
  -5.564  0.243E+00  0.116E+00  0.639E-01  0.639E-01
  -5.554  0.244E+00  0.119E+00  0.624E-01  0.624E-01
  -5.544  0.244E+00  0.122E+00  0.607E-01  0.607E-01
  -5.534  0.244E+00  0.127E+00  0.588E-01  0.588E-01
  -5.524  0.245E+00  0.131E+00  0.569E-01  0.569E-01
  -5.514  0.246E+00  0.137E+00  0.549E-01  0.549E-01
  -5.504  0.248E+00  0.142E+00  0.530E-01  0.530E-01
  -5.494  0.250E+00  0.148E+00  0.511E-01  0.511E-01
  -5.484  0.253E+00  0.154E+00  0.495E-01  0.495E-01
  -5.474  0.256E+00  0.160E+00  0.480E-01  0.480E-01
  -5.464  0.259E+00  0.165E+00  0.468E-01  0.468E-01
  -5.454  0.263E+00  0.171E+00  0.459E-01  0.459E-01
  -5.444  0.266E+00  0.176E+00  0.453E-01  0.453E-01
  -5.434  0.270E+00  0.180E+00  0.451E-01  0.451E-01
  -5.424  0.274E+00  0.184E+00  0.451E-01  0.451E-01
  -5.414  0.277E+00  0.186E+00  0.455E-01  0.455E-01
  -5.404  0.281E+00  0.189E+00  0.462E-01  0.462E-01
  -5.394  0.284E+00  0.190E+00  0.471E-01  0.471E-01
  -5.384  0.286E+00  0.190E+00  0.482E-01  0.482E-01
  -5.374  0.288E+00  0.189E+00  0.494E-01  0.494E-01
  -5.364  0.290E+00  0.188E+00  0.508E-01  0.508E-01
  -5.354  0.291E+00  0.186E+00  0.523E-01  0.523E-01
  -5.344  0.291E+00  0.183E+00  0.537E-01  0.537E-01
  -5.334  0.290E+00  0.180E+00  0.550E-01  0.550E-01
  -5.324  0.289E+00  0.176E+00  0.563E-01  0.563E-01
  -5.314  0.287E+00  0.172E+00  0.573E-01  0.573E-01
  -5.304  0.284E+00  0.168E+00  0.582E-01  0.582E-01
  -5.294  0.281E+00  0.163E+00  0.588E-01  0.588E-01
  -5.284  0.277E+00  0.159E+00  0.591E-01  0.591E-01
  -5.274  0.273E+00  0.155E+00  0.592E-01  0.592E-01
  -5.264  0.269E+00  0.151E+00  0.589E-01  0.589E-01
  -5.254  0.264E+00  0.147E+00  0.584E-01  0.584E-01
  -5.244  0.259E+00  0.144E+00  0.577E-01  0.577E-01
  -5.234  0.254E+00  0.141E+00  0.567E-01  0.567E-01
  -5.224  0.249E+00  0.138E+00  0.556E-01  0.556E-01
  -5.214  0.244E+00  0.136E+00  0.544E-01  0.544E-01
  -5.204  0.240E+00  0.133E+00  0.531E-01  0.531E-01
  -5.194  0.235E+00  0.131E+00  0.518E-01  0.518E-01
  -5.184  0.231E+00  0.129E+00  0.506E-01  0.506E-01
  -5.174  0.227E+00  0.128E+00  0.495E-01  0.495E-01
  -5.164  0.223E+00  0.126E+00  0.485E-01  0.485E-01
  -5.154  0.220E+00  0.125E+00  0.477E-01  0.477E-01
  -5.144  0.218E+00  0.123E+00  0.472E-01  0.472E-01
  -5.134  0.216E+00  0.122E+00  0.468E-01  0.468E-01
  -5.124  0.214E+00  0.121E+00  0.466E-01  0.466E-01
  -5.114  0.213E+00  0.120E+00  0.467E-01  0.467E-01
  -5.104  0.213E+00  0.119E+00  0.469E-01  0.469E-01
  -5.094  0.213E+00  0.119E+00  0.472E-01  0.472E-01
  -5.084  0.214E+00  0.119E+00  0.477E-01  0.477E-01
  -5.074  0.215E+00  0.119E+00  0.482E-01  0.482E-01
  -5.064  0.217E+00  0.120E+00  0.488E-01  0.488E-01
  -5.054  0.220E+00  0.121E+00  0.493E-01  0.493E-01
  -5.044  0.223E+00  0.123E+00  0.498E-01  0.498E-01
  -5.034  0.227E+00  0.126E+00  0.502E-01  0.502E-01
  -5.024  0.231E+00  0.130E+00  0.506E-01  0.506E-01
  -5.014  0.236E+00  0.134E+00  0.508E-01  0.508E-01
  -5.004  0.241E+00  0.139E+00  0.510E-01  0.510E-01
  -4.994  0.246E+00  0.144E+00  0.510E-01  0.510E-01
  -4.984  0.252E+00  0.150E+00  0.509E-01  0.509E-01
  -4.974  0.258E+00  0.157E+00  0.507E-01  0.507E-01
  -4.964  0.264E+00  0.164E+00  0.504E-01  0.504E-01
  -4.954  0.271E+00  0.171E+00  0.500E-01  0.500E-01
  -4.944  0.277E+00  0.177E+00  0.496E-01  0.496E-01
  -4.934  0.283E+00  0.184E+00  0.491E-01  0.491E-01
  -4.924  0.288E+00  0.191E+00  0.486E-01  0.486E-01
  -4.914  0.293E+00  0.197E+00  0.481E-01  0.481E-01
  -4.904  0.298E+00  0.203E+00  0.475E-01  0.475E-01
  -4.894  0.301E+00  0.207E+00  0.470E-01  0.470E-01
  -4.884  0.304E+00  0.212E+00  0.464E-01  0.464E-01
  -4.874  0.307E+00  0.215E+00  0.457E-01  0.457E-01
  -4.864  0.308E+00  0.218E+00  0.451E-01  0.451E-01
  -4.854  0.308E+00  0.219E+00  0.444E-01  0.444E-01
  -4.844  0.308E+00  0.220E+00  0.436E-01  0.436E-01
  -4.834  0.306E+00  0.221E+00  0.427E-01  0.427E-01
  -4.824  0.304E+00  0.220E+00  0.418E-01  0.418E-01
  -4.814  0.300E+00  0.219E+00  0.407E-01  0.407E-01
  -4.804  0.296E+00  0.217E+00  0.396E-01  0.396E-01
  -4.794  0.291E+00  0.215E+00  0.383E-01  0.383E-01
  -4.784  0.286E+00  0.212E+00  0.370E-01  0.370E-01
  -4.774  0.280E+00  0.209E+00  0.355E-01  0.355E-01
  -4.764  0.274E+00  0.206E+00  0.339E-01  0.339E-01
  -4.754  0.267E+00  0.203E+00  0.322E-01  0.322E-01
  -4.744  0.260E+00  0.200E+00  0.304E-01  0.304E-01
  -4.734  0.253E+00  0.196E+00  0.285E-01  0.285E-01
  -4.724  0.246E+00  0.193E+00  0.266E-01  0.266E-01
  -4.714  0.239E+00  0.190E+00  0.246E-01  0.246E-01
  -4.704  0.232E+00  0.187E+00  0.226E-01  0.226E-01
  -4.694  0.226E+00  0.184E+00  0.207E-01  0.207E-01
  -4.684  0.219E+00  0.182E+00  0.187E-01  0.187E-01
  -4.674  0.213E+00  0.179E+00  0.169E-01  0.169E-01
  -4.664  0.207E+00  0.177E+00  0.151E-01  0.151E-01
  -4.654  0.202E+00  0.175E+00  0.133E-01  0.133E-01
  -4.644  0.197E+00  0.173E+00  0.117E-01  0.117E-01
  -4.634  0.192E+00  0.172E+00  0.102E-01  0.102E-01
  -4.624  0.188E+00  0.170E+00  0.881E-02  0.881E-02
  -4.614  0.185E+00  0.170E+00  0.755E-02  0.755E-02
  -4.604  0.182E+00  0.169E+00  0.641E-02  0.641E-02
  -4.594  0.180E+00  0.169E+00  0.539E-02  0.539E-02
  -4.584  0.178E+00  0.169E+00  0.450E-02  0.450E-02
  -4.574  0.177E+00  0.169E+00  0.372E-02  0.372E-02
  -4.564  0.176E+00  0.170E+00  0.305E-02  0.305E-02
  -4.554  0.176E+00  0.171E+00  0.248E-02  0.248E-02
  -4.544  0.177E+00  0.173E+00  0.199E-02  0.199E-02
  -4.534  0.179E+00  0.175E+00  0.159E-02  0.159E-02
  -4.524  0.181E+00  0.178E+00  0.126E-02  0.126E-02
  -4.514  0.183E+00  0.181E+00  0.983E-03  0.983E-03
  -4.504  0.187E+00  0.185E+00  0.762E-03  0.762E-03
  -4.494  0.191E+00  0.190E+00  0.585E-03  0.585E-03
  -4.484  0.196E+00  0.195E+00  0.445E-03  0.445E-03
  -4.474  0.202E+00  0.201E+00  0.336E-03  0.336E-03
  -4.464  0.209E+00  0.208E+00  0.251E-03  0.251E-03
  -4.454  0.216E+00  0.216E+00  0.185E-03  0.185E-03
  -4.444  0.224E+00  0.224E+00  0.136E-03  0.136E-03
  -4.434  0.232E+00  0.232E+00  0.985E-04  0.985E-04
  -4.424  0.241E+00  0.241E+00  0.707E-04  0.707E-04
  -4.414  0.251E+00  0.251E+00  0.503E-04  0.503E-04
  -4.404  0.260E+00  0.260E+00  0.355E-04  0.355E-04
  -4.394  0.269E+00  0.269E+00  0.247E-04  0.247E-04
  -4.384  0.278E+00  0.278E+00  0.171E-04  0.171E-04
  -4.374  0.286E+00  0.286E+00  0.117E-04  0.117E-04
  -4.364  0.293E+00  0.293E+00  0.792E-05  0.792E-05
  -4.354  0.299E+00  0.299E+00  0.531E-05  0.531E-05
  -4.344  0.303E+00  0.303E+00  0.353E-05  0.353E-05
  -4.334  0.306E+00  0.306E+00  0.232E-05  0.232E-05
  -4.324  0.306E+00  0.306E+00  0.151E-05  0.151E-05
  -4.314  0.305E+00  0.305E+00  0.974E-06  0.974E-06
  -4.304  0.302E+00  0.302E+00  0.621E-06  0.621E-06
  -4.294  0.296E+00  0.296E+00  0.392E-06  0.392E-06
  -4.284  0.288E+00  0.288E+00  0.245E-06  0.245E-06
  -4.274  0.279E+00  0.279E+00  0.152E-06  0.152E-06
  -4.264  0.268E+00  0.268E+00  0.931E-07  0.931E-07
  -4.254  0.255E+00  0.255E+00  0.565E-07  0.565E-07
  -4.244  0.241E+00  0.241E+00  0.339E-07  0.339E-07
  -4.234  0.227E+00  0.227E+00  0.201E-07  0.201E-07
  -4.224  0.211E+00  0.211E+00  0.119E-07  0.119E-07
  -4.214  0.196E+00  0.196E+00  0.690E-08  0.690E-08
  -4.204  0.181E+00  0.181E+00  0.398E-08  0.398E-08
  -4.194  0.166E+00  0.166E+00  0.227E-08  0.227E-08
  -4.184  0.152E+00  0.152E+00  0.128E-08  0.128E-08
  -4.174  0.138E+00  0.138E+00  0.715E-09  0.715E-09
  -4.164  0.126E+00  0.126E+00  0.395E-09  0.395E-09
  -4.154  0.115E+00  0.115E+00  0.216E-09  0.216E-09
  -4.144  0.105E+00  0.105E+00  0.117E-09  0.117E-09
  -4.134  0.970E-01  0.970E-01  0.628E-10  0.628E-10
  -4.124  0.900E-01  0.900E-01  0.333E-10  0.333E-10
  -4.114  0.844E-01  0.844E-01  0.175E-10  0.175E-10
  -4.104  0.802E-01  0.802E-01  0.908E-11  0.908E-11
  -4.094  0.772E-01  0.772E-01  0.463E-11  0.463E-11
  -4.084  0.754E-01  0.754E-01  0.235E-11  0.235E-11
  -4.074  0.747E-01  0.747E-01  0.119E-11  0.119E-11
  -4.064  0.751E-01  0.751E-01  0.591E-12  0.591E-12
  -4.054  0.764E-01  0.764E-01  0.266E-12  0.266E-12
  -4.044  0.786E-01  0.786E-01  0.130E-12  0.130E-12
  -4.034  0.815E-01  0.815E-01  0.632E-13  0.632E-13
  -4.024  0.851E-01  0.851E-01  0.303E-13  0.303E-13
  -4.014  0.894E-01  0.894E-01  0.321E-17  0.321E-17
  -4.004  0.942E-01  0.942E-01  0.353E-17  0.353E-17
  -3.994  0.996E-01  0.996E-01  0.386E-17  0.386E-17
  -3.984  0.105E+00  0.105E+00  0.420E-17  0.420E-17
  -3.974  0.111E+00  0.111E+00  0.452E-17  0.452E-17
  -3.964  0.118E+00  0.118E+00  0.484E-17  0.484E-17
  -3.954  0.125E+00  0.125E+00  0.513E-17  0.513E-17
  -3.944  0.131E+00  0.131E+00  0.538E-17  0.538E-17
  -3.934  0.138E+00  0.138E+00  0.560E-17  0.560E-17
  -3.924  0.145E+00  0.145E+00  0.577E-17  0.577E-17
  -3.914  0.152E+00  0.152E+00  0.590E-17  0.590E-17
  -3.904  0.158E+00  0.158E+00  0.597E-17  0.597E-17
  -3.894  0.164E+00  0.164E+00  0.598E-17  0.598E-17
  -3.884  0.169E+00  0.169E+00  0.593E-17  0.593E-17
  -3.874  0.173E+00  0.173E+00  0.584E-17  0.584E-17
  -3.864  0.177E+00  0.177E+00  0.569E-17  0.569E-17
  -3.854  0.179E+00  0.179E+00  0.549E-17  0.549E-17
  -3.844  0.181E+00  0.181E+00  0.525E-17  0.525E-17
  -3.834  0.181E+00  0.181E+00  0.498E-17  0.498E-17
  -3.824  0.180E+00  0.180E+00  0.468E-17  0.468E-17
  -3.814  0.178E+00  0.178E+00  0.436E-17  0.436E-17
  -3.804  0.175E+00  0.175E+00  0.404E-17  0.404E-17
  -3.794  0.170E+00  0.170E+00  0.371E-17  0.371E-17
  -3.784  0.164E+00  0.164E+00  0.338E-17  0.338E-17
  -3.774  0.158E+00  0.158E+00  0.307E-17  0.307E-17
  -3.764  0.150E+00  0.150E+00  0.278E-17  0.278E-17
  -3.754  0.142E+00  0.142E+00  0.251E-17  0.251E-17
  -3.744  0.134E+00  0.134E+00  0.227E-17  0.227E-17
  -3.734  0.125E+00  0.125E+00  0.205E-17  0.205E-17
  -3.724  0.117E+00  0.117E+00  0.187E-17  0.187E-17
  -3.714  0.108E+00  0.108E+00  0.172E-17  0.172E-17
  -3.704  0.999E-01  0.999E-01  0.161E-17  0.161E-17
  -3.694  0.922E-01  0.922E-01  0.153E-17  0.153E-17
  -3.684  0.851E-01  0.851E-01  0.147E-17  0.147E-17
  -3.674  0.788E-01  0.788E-01  0.145E-17  0.145E-17
  -3.664  0.731E-01  0.731E-01  0.145E-17  0.145E-17
  -3.654  0.683E-01  0.683E-01  0.147E-17  0.147E-17
  -3.644  0.643E-01  0.643E-01  0.151E-17  0.151E-17
  -3.634  0.611E-01  0.611E-01  0.156E-17  0.156E-17
  -3.624  0.587E-01  0.587E-01  0.161E-17  0.161E-17
  -3.614  0.569E-01  0.569E-01  0.168E-17  0.168E-17
  -3.604  0.557E-01  0.557E-01  0.174E-17  0.174E-17
  -3.594  0.551E-01  0.551E-01  0.180E-17  0.180E-17
  -3.584  0.549E-01  0.549E-01  0.184E-17  0.184E-17
  -3.574  0.551E-01  0.551E-01  0.188E-17  0.188E-17
  -3.564  0.556E-01  0.556E-01  0.190E-17  0.190E-17
  -3.554  0.564E-01  0.564E-01  0.191E-17  0.191E-17
  -3.544  0.573E-01  0.573E-01  0.189E-17  0.189E-17
  -3.534  0.585E-01  0.585E-01  0.186E-17  0.186E-17
  -3.524  0.597E-01  0.597E-01  0.182E-17  0.182E-17
  -3.514  0.611E-01  0.611E-01  0.175E-17  0.175E-17
  -3.504  0.626E-01  0.626E-01  0.167E-17  0.167E-17
  -3.494  0.643E-01  0.643E-01  0.158E-17  0.158E-17
  -3.484  0.661E-01  0.661E-01  0.148E-17  0.148E-17
  -3.474  0.681E-01  0.681E-01  0.137E-17  0.137E-17
  -3.464  0.703E-01  0.703E-01  0.125E-17  0.125E-17
  -3.454  0.726E-01  0.726E-01  0.114E-17  0.114E-17
  -3.444  0.752E-01  0.752E-01  0.102E-17  0.102E-17
  -3.434  0.779E-01  0.779E-01  0.910E-18  0.910E-18
  -3.424  0.808E-01  0.808E-01  0.802E-18  0.802E-18
  -3.414  0.838E-01  0.838E-01  0.702E-18  0.702E-18
  -3.404  0.870E-01  0.870E-01  0.609E-18  0.609E-18
  -3.394  0.902E-01  0.902E-01  0.525E-18  0.525E-18
  -3.384  0.934E-01  0.934E-01  0.450E-18  0.450E-18
  -3.374  0.965E-01  0.965E-01  0.385E-18  0.385E-18
  -3.364  0.995E-01  0.995E-01  0.329E-18  0.329E-18
  -3.354  0.102E+00  0.102E+00  0.282E-18  0.282E-18
  -3.344  0.105E+00  0.105E+00  0.243E-18  0.243E-18
  -3.334  0.107E+00  0.107E+00  0.211E-18  0.211E-18
  -3.324  0.109E+00  0.109E+00  0.186E-18  0.186E-18
  -3.314  0.110E+00  0.110E+00  0.166E-18  0.166E-18
  -3.304  0.110E+00  0.110E+00  0.152E-18  0.152E-18
  -3.294  0.110E+00  0.110E+00  0.140E-18  0.140E-18
  -3.284  0.110E+00  0.110E+00  0.132E-18  0.132E-18
  -3.274  0.108E+00  0.108E+00  0.126E-18  0.126E-18
  -3.264  0.106E+00  0.106E+00  0.121E-18  0.121E-18
  -3.254  0.103E+00  0.103E+00  0.118E-18  0.118E-18
  -3.244  0.998E-01  0.998E-01  0.115E-18  0.115E-18
  -3.234  0.958E-01  0.958E-01  0.112E-18  0.112E-18
  -3.224  0.913E-01  0.913E-01  0.109E-18  0.109E-18
  -3.214  0.863E-01  0.863E-01  0.106E-18  0.106E-18
  -3.204  0.811E-01  0.811E-01  0.103E-18  0.103E-18
  -3.194  0.757E-01  0.757E-01  0.997E-19  0.997E-19
  -3.184  0.703E-01  0.703E-01  0.961E-19  0.961E-19
  -3.174  0.649E-01  0.649E-01  0.923E-19  0.923E-19
  -3.164  0.598E-01  0.598E-01  0.886E-19  0.886E-19
  -3.154  0.549E-01  0.549E-01  0.850E-19  0.850E-19
  -3.144  0.504E-01  0.504E-01  0.818E-19  0.818E-19
  -3.134  0.464E-01  0.464E-01  0.790E-19  0.790E-19
  -3.124  0.429E-01  0.429E-01  0.768E-19  0.768E-19
  -3.114  0.400E-01  0.400E-01  0.754E-19  0.754E-19
  -3.104  0.377E-01  0.377E-01  0.747E-19  0.747E-19
  -3.094  0.360E-01  0.360E-01  0.749E-19  0.749E-19
  -3.084  0.349E-01  0.349E-01  0.759E-19  0.759E-19
  -3.074  0.344E-01  0.344E-01  0.776E-19  0.776E-19
  -3.064  0.343E-01  0.343E-01  0.801E-19  0.801E-19
  -3.054  0.347E-01  0.347E-01  0.832E-19  0.832E-19
  -3.044  0.355E-01  0.355E-01  0.867E-19  0.867E-19
  -3.034  0.366E-01  0.366E-01  0.905E-19  0.905E-19
  -3.024  0.378E-01  0.378E-01  0.944E-19  0.944E-19
  -3.014  0.392E-01  0.392E-01  0.983E-19  0.983E-19
  -3.004  0.407E-01  0.407E-01  0.102E-18  0.102E-18
  -2.994  0.422E-01  0.422E-01  0.105E-18  0.105E-18
  -2.984  0.437E-01  0.437E-01  0.108E-18  0.108E-18
  -2.974  0.450E-01  0.450E-01  0.110E-18  0.110E-18
  -2.964  0.463E-01  0.463E-01  0.112E-18  0.112E-18
  -2.954  0.474E-01  0.474E-01  0.113E-18  0.113E-18
  -2.944  0.485E-01  0.485E-01  0.114E-18  0.114E-18
  -2.934  0.494E-01  0.494E-01  0.115E-18  0.115E-18
  -2.924  0.502E-01  0.502E-01  0.115E-18  0.115E-18
  -2.914  0.511E-01  0.511E-01  0.115E-18  0.115E-18
  -2.904  0.518E-01  0.518E-01  0.117E-18  0.117E-18
  -2.894  0.526E-01  0.526E-01  0.119E-18  0.119E-18
  -2.884  0.534E-01  0.534E-01  0.123E-18  0.123E-18
  -2.874  0.543E-01  0.543E-01  0.130E-18  0.130E-18
  -2.864  0.552E-01  0.552E-01  0.140E-18  0.140E-18
  -2.854  0.561E-01  0.561E-01  0.156E-18  0.156E-18
  -2.844  0.571E-01  0.571E-01  0.177E-18  0.177E-18
  -2.834  0.580E-01  0.580E-01  0.206E-18  0.206E-18
  -2.824  0.589E-01  0.589E-01  0.245E-18  0.245E-18
  -2.814  0.598E-01  0.598E-01  0.296E-18  0.296E-18
  -2.804  0.604E-01  0.604E-01  0.361E-18  0.361E-18
  -2.794  0.609E-01  0.609E-01  0.443E-18  0.443E-18
  -2.784  0.612E-01  0.612E-01  0.546E-18  0.546E-18
  -2.774  0.613E-01  0.613E-01  0.671E-18  0.671E-18
  -2.764  0.610E-01  0.610E-01  0.822E-18  0.822E-18
  -2.754  0.605E-01  0.605E-01  0.100E-17  0.100E-17
  -2.744  0.596E-01  0.596E-01  0.121E-17  0.121E-17
  -2.734  0.585E-01  0.585E-01  0.146E-17  0.146E-17
  -2.724  0.571E-01  0.571E-01  0.173E-17  0.173E-17
  -2.714  0.555E-01  0.555E-01  0.205E-17  0.205E-17
  -2.704  0.537E-01  0.537E-01  0.239E-17  0.239E-17
  -2.694  0.517E-01  0.517E-01  0.277E-17  0.277E-17
  -2.684  0.496E-01  0.496E-01  0.317E-17  0.317E-17
  -2.674  0.475E-01  0.475E-01  0.360E-17  0.360E-17
  -2.664  0.454E-01  0.454E-01  0.404E-17  0.404E-17
  -2.654  0.433E-01  0.433E-01  0.449E-17  0.449E-17
  -2.644  0.412E-01  0.412E-01  0.493E-17  0.493E-17
  -2.634  0.392E-01  0.392E-01  0.536E-17  0.536E-17
  -2.624  0.373E-01  0.373E-01  0.577E-17  0.577E-17
  -2.614  0.355E-01  0.355E-01  0.614E-17  0.614E-17
  -2.604  0.338E-01  0.338E-01  0.647E-17  0.647E-17
  -2.594  0.322E-01  0.322E-01  0.674E-17  0.674E-17
  -2.584  0.306E-01  0.306E-01  0.695E-17  0.695E-17
  -2.574  0.291E-01  0.291E-01  0.709E-17  0.709E-17
  -2.564  0.277E-01  0.277E-01  0.716E-17  0.716E-17
  -2.554  0.263E-01  0.263E-01  0.714E-17  0.714E-17
  -2.544  0.249E-01  0.249E-01  0.705E-17  0.705E-17
  -2.534  0.236E-01  0.236E-01  0.689E-17  0.689E-17
  -2.524  0.223E-01  0.223E-01  0.666E-17  0.666E-17
  -2.514  0.211E-01  0.211E-01  0.637E-17  0.637E-17
  -2.504  0.200E-01  0.200E-01  0.602E-17  0.602E-17
  -2.494  0.189E-01  0.189E-01  0.564E-17  0.564E-17
  -2.484  0.180E-01  0.180E-01  0.522E-17  0.522E-17
  -2.474  0.172E-01  0.172E-01  0.478E-17  0.478E-17
  -2.464  0.166E-01  0.166E-01  0.434E-17  0.434E-17
  -2.454  0.162E-01  0.162E-01  0.389E-17  0.389E-17
  -2.444  0.161E-01  0.161E-01  0.345E-17  0.345E-17
  -2.434  0.162E-01  0.162E-01  0.304E-17  0.304E-17
  -2.424  0.166E-01  0.166E-01  0.264E-17  0.264E-17
  -2.414  0.173E-01  0.173E-01  0.228E-17  0.228E-17
  -2.404  0.182E-01  0.182E-01  0.194E-17  0.194E-17
  -2.394  0.195E-01  0.195E-01  0.165E-17  0.165E-17
  -2.384  0.209E-01  0.209E-01  0.138E-17  0.138E-17
  -2.374  0.226E-01  0.226E-01  0.115E-17  0.115E-17
  -2.364  0.244E-01  0.244E-01  0.958E-18  0.958E-18
  -2.354  0.263E-01  0.263E-01  0.792E-18  0.792E-18
  -2.344  0.283E-01  0.283E-01  0.654E-18  0.654E-18
  -2.334  0.303E-01  0.303E-01  0.541E-18  0.541E-18
  -2.324  0.322E-01  0.322E-01  0.449E-18  0.449E-18
  -2.314  0.339E-01  0.339E-01  0.376E-18  0.376E-18
  -2.304  0.354E-01  0.354E-01  0.317E-18  0.317E-18
  -2.294  0.367E-01  0.367E-01  0.272E-18  0.272E-18
  -2.284  0.376E-01  0.376E-01  0.236E-18  0.236E-18
  -2.274  0.382E-01  0.382E-01  0.208E-18  0.208E-18
  -2.264  0.383E-01  0.383E-01  0.186E-18  0.186E-18
  -2.254  0.381E-01  0.381E-01  0.168E-18  0.168E-18
  -2.244  0.375E-01  0.375E-01  0.154E-18  0.154E-18
  -2.234  0.365E-01  0.365E-01  0.141E-18  0.141E-18
  -2.224  0.352E-01  0.352E-01  0.130E-18  0.130E-18
  -2.214  0.336E-01  0.336E-01  0.120E-18  0.120E-18
  -2.204  0.316E-01  0.316E-01  0.110E-18  0.110E-18
  -2.194  0.295E-01  0.295E-01  0.101E-18  0.101E-18
  -2.184  0.272E-01  0.272E-01  0.920E-19  0.920E-19
  -2.174  0.249E-01  0.249E-01  0.832E-19  0.832E-19
  -2.164  0.225E-01  0.225E-01  0.746E-19  0.746E-19
  -2.154  0.201E-01  0.201E-01  0.664E-19  0.664E-19
  -2.144  0.178E-01  0.178E-01  0.586E-19  0.586E-19
  -2.134  0.155E-01  0.155E-01  0.513E-19  0.513E-19
  -2.124  0.134E-01  0.134E-01  0.446E-19  0.446E-19
  -2.114  0.115E-01  0.115E-01  0.385E-19  0.385E-19
  -2.104  0.975E-02  0.975E-02  0.332E-19  0.332E-19
  -2.094  0.818E-02  0.818E-02  0.287E-19  0.287E-19
  -2.084  0.679E-02  0.679E-02  0.250E-19  0.250E-19
  -2.074  0.558E-02  0.558E-02  0.223E-19  0.223E-19
  -2.064  0.455E-02  0.455E-02  0.207E-19  0.207E-19
  -2.054  0.369E-02  0.369E-02  0.202E-19  0.202E-19
  -2.044  0.298E-02  0.298E-02  0.210E-19  0.210E-19
  -2.034  0.241E-02  0.241E-02  0.233E-19  0.233E-19
  -2.024  0.196E-02  0.196E-02  0.272E-19  0.272E-19
  -2.014  0.164E-02  0.164E-02  0.332E-19  0.332E-19
  -2.004  0.141E-02  0.141E-02  0.415E-19  0.415E-19
  -1.994  0.128E-02  0.128E-02  0.524E-19  0.524E-19
  -1.984  0.123E-02  0.123E-02  0.664E-19  0.664E-19
  -1.974  0.127E-02  0.127E-02  0.841E-19  0.841E-19
  -1.964  0.138E-02  0.138E-02  0.106E-18  0.106E-18
  -1.954  0.157E-02  0.157E-02  0.132E-18  0.132E-18
  -1.944  0.183E-02  0.183E-02  0.163E-18  0.163E-18
  -1.934  0.216E-02  0.216E-02  0.200E-18  0.200E-18
  -1.924  0.257E-02  0.257E-02  0.242E-18  0.242E-18
  -1.914  0.304E-02  0.304E-02  0.290E-18  0.290E-18
  -1.904  0.358E-02  0.358E-02  0.345E-18  0.345E-18
  -1.894  0.419E-02  0.419E-02  0.405E-18  0.405E-18
  -1.884  0.486E-02  0.486E-02  0.470E-18  0.470E-18
  -1.874  0.557E-02  0.557E-02  0.540E-18  0.540E-18
  -1.864  0.633E-02  0.633E-02  0.614E-18  0.614E-18
  -1.854  0.711E-02  0.711E-02  0.691E-18  0.691E-18
  -1.844  0.791E-02  0.791E-02  0.768E-18  0.768E-18
  -1.834  0.871E-02  0.871E-02  0.846E-18  0.846E-18
  -1.824  0.948E-02  0.948E-02  0.921E-18  0.921E-18
  -1.814  0.102E-01  0.102E-01  0.992E-18  0.992E-18
  -1.804  0.109E-01  0.109E-01  0.106E-17  0.106E-17
  -1.794  0.115E-01  0.115E-01  0.111E-17  0.111E-17
  -1.784  0.120E-01  0.120E-01  0.116E-17  0.116E-17
  -1.774  0.123E-01  0.123E-01  0.120E-17  0.120E-17
  -1.764  0.126E-01  0.126E-01  0.122E-17  0.122E-17
  -1.754  0.127E-01  0.127E-01  0.123E-17  0.123E-17
  -1.744  0.127E-01  0.127E-01  0.123E-17  0.123E-17
  -1.734  0.125E-01  0.125E-01  0.122E-17  0.122E-17
  -1.724  0.122E-01  0.122E-01  0.119E-17  0.119E-17
  -1.714  0.118E-01  0.118E-01  0.115E-17  0.115E-17
  -1.704  0.113E-01  0.113E-01  0.110E-17  0.110E-17
  -1.694  0.107E-01  0.107E-01  0.104E-17  0.104E-17
  -1.684  0.100E-01  0.100E-01  0.974E-18  0.974E-18
  -1.674  0.928E-02  0.928E-02  0.901E-18  0.901E-18
  -1.664  0.850E-02  0.850E-02  0.826E-18  0.826E-18
  -1.654  0.771E-02  0.771E-02  0.748E-18  0.748E-18
  -1.644  0.691E-02  0.691E-02  0.671E-18  0.671E-18
  -1.634  0.613E-02  0.613E-02  0.595E-18  0.595E-18
  -1.624  0.539E-02  0.539E-02  0.522E-18  0.522E-18
  -1.614  0.469E-02  0.469E-02  0.453E-18  0.453E-18
  -1.604  0.404E-02  0.404E-02  0.389E-18  0.389E-18
  -1.594  0.346E-02  0.346E-02  0.331E-18  0.331E-18
  -1.584  0.294E-02  0.294E-02  0.278E-18  0.278E-18
  -1.574  0.250E-02  0.250E-02  0.232E-18  0.232E-18
  -1.564  0.213E-02  0.213E-02  0.192E-18  0.192E-18
  -1.554  0.183E-02  0.183E-02  0.157E-18  0.157E-18
  -1.544  0.162E-02  0.162E-02  0.129E-18  0.129E-18
  -1.534  0.148E-02  0.148E-02  0.105E-18  0.105E-18
  -1.524  0.143E-02  0.143E-02  0.862E-19  0.862E-19
  -1.514  0.147E-02  0.147E-02  0.719E-19  0.719E-19
  -1.504  0.161E-02  0.161E-02  0.618E-19  0.618E-19
  -1.494  0.184E-02  0.184E-02  0.554E-19  0.554E-19
  -1.484  0.219E-02  0.219E-02  0.525E-19  0.525E-19
  -1.474  0.266E-02  0.266E-02  0.530E-19  0.530E-19
  -1.464  0.327E-02  0.327E-02  0.567E-19  0.567E-19
  -1.454  0.402E-02  0.402E-02  0.634E-19  0.634E-19
  -1.444  0.493E-02  0.493E-02  0.731E-19  0.731E-19
  -1.434  0.602E-02  0.602E-02  0.858E-19  0.858E-19
  -1.424  0.728E-02  0.728E-02  0.101E-18  0.101E-18
  -1.414  0.873E-02  0.873E-02  0.120E-18  0.120E-18
  -1.404  0.104E-01  0.104E-01  0.141E-18  0.141E-18
  -1.394  0.122E-01  0.122E-01  0.165E-18  0.165E-18
  -1.384  0.142E-01  0.142E-01  0.192E-18  0.192E-18
  -1.374  0.163E-01  0.163E-01  0.220E-18  0.220E-18
  -1.364  0.186E-01  0.186E-01  0.250E-18  0.250E-18
  -1.354  0.209E-01  0.209E-01  0.282E-18  0.282E-18
  -1.344  0.233E-01  0.233E-01  0.314E-18  0.314E-18
  -1.334  0.257E-01  0.257E-01  0.346E-18  0.346E-18
  -1.324  0.281E-01  0.281E-01  0.378E-18  0.378E-18
  -1.314  0.303E-01  0.303E-01  0.408E-18  0.408E-18
  -1.304  0.323E-01  0.323E-01  0.436E-18  0.436E-18
  -1.294  0.342E-01  0.342E-01  0.460E-18  0.460E-18
  -1.284  0.357E-01  0.357E-01  0.481E-18  0.481E-18
  -1.274  0.370E-01  0.370E-01  0.498E-18  0.498E-18
  -1.264  0.379E-01  0.379E-01  0.510E-18  0.510E-18
  -1.254  0.384E-01  0.384E-01  0.517E-18  0.517E-18
  -1.244  0.385E-01  0.385E-01  0.519E-18  0.519E-18
  -1.234  0.383E-01  0.383E-01  0.516E-18  0.516E-18
  -1.224  0.377E-01  0.377E-01  0.509E-18  0.509E-18
  -1.214  0.368E-01  0.368E-01  0.497E-18  0.497E-18
  -1.204  0.356E-01  0.356E-01  0.482E-18  0.482E-18
  -1.194  0.342E-01  0.342E-01  0.463E-18  0.463E-18
  -1.184  0.326E-01  0.326E-01  0.443E-18  0.443E-18
  -1.174  0.309E-01  0.309E-01  0.421E-18  0.421E-18
  -1.164  0.292E-01  0.292E-01  0.399E-18  0.399E-18
  -1.154  0.275E-01  0.275E-01  0.378E-18  0.378E-18
  -1.144  0.259E-01  0.259E-01  0.358E-18  0.358E-18
  -1.134  0.245E-01  0.245E-01  0.339E-18  0.339E-18
  -1.124  0.232E-01  0.232E-01  0.324E-18  0.324E-18
  -1.114  0.221E-01  0.221E-01  0.311E-18  0.311E-18
  -1.104  0.213E-01  0.213E-01  0.301E-18  0.301E-18
  -1.094  0.207E-01  0.207E-01  0.294E-18  0.294E-18
  -1.084  0.204E-01  0.204E-01  0.290E-18  0.290E-18
  -1.074  0.202E-01  0.202E-01  0.289E-18  0.289E-18
  -1.064  0.203E-01  0.203E-01  0.290E-18  0.290E-18
  -1.054  0.206E-01  0.206E-01  0.292E-18  0.292E-18
  -1.044  0.210E-01  0.210E-01  0.296E-18  0.296E-18
  -1.034  0.216E-01  0.216E-01  0.300E-18  0.300E-18
  -1.024  0.223E-01  0.223E-01  0.303E-18  0.303E-18
  -1.014  0.230E-01  0.230E-01  0.306E-18  0.306E-18
  -1.004  0.239E-01  0.239E-01  0.308E-18  0.308E-18
  -0.994  0.248E-01  0.248E-01  0.308E-18  0.308E-18
  -0.984  0.258E-01  0.258E-01  0.307E-18  0.307E-18
  -0.974  0.268E-01  0.268E-01  0.303E-18  0.303E-18
  -0.964  0.280E-01  0.280E-01  0.296E-18  0.296E-18
  -0.954  0.292E-01  0.292E-01  0.288E-18  0.288E-18
  -0.944  0.306E-01  0.306E-01  0.277E-18  0.277E-18
  -0.934  0.322E-01  0.322E-01  0.265E-18  0.265E-18
  -0.924  0.339E-01  0.339E-01  0.251E-18  0.251E-18
  -0.914  0.358E-01  0.358E-01  0.235E-18  0.235E-18
  -0.904  0.380E-01  0.380E-01  0.219E-18  0.219E-18
  -0.894  0.403E-01  0.403E-01  0.203E-18  0.203E-18
  -0.884  0.428E-01  0.428E-01  0.187E-18  0.187E-18
  -0.874  0.455E-01  0.455E-01  0.171E-18  0.171E-18
  -0.864  0.484E-01  0.484E-01  0.156E-18  0.156E-18
  -0.854  0.514E-01  0.514E-01  0.142E-18  0.142E-18
  -0.844  0.544E-01  0.544E-01  0.129E-18  0.129E-18
  -0.834  0.575E-01  0.575E-01  0.117E-18  0.117E-18
  -0.824  0.605E-01  0.605E-01  0.107E-18  0.107E-18
  -0.814  0.634E-01  0.634E-01  0.991E-19  0.991E-19
  -0.804  0.661E-01  0.661E-01  0.924E-19  0.924E-19
  -0.794  0.686E-01  0.686E-01  0.873E-19  0.873E-19
  -0.784  0.708E-01  0.708E-01  0.837E-19  0.837E-19
  -0.774  0.727E-01  0.727E-01  0.816E-19  0.816E-19
  -0.764  0.743E-01  0.743E-01  0.807E-19  0.807E-19
  -0.754  0.754E-01  0.754E-01  0.811E-19  0.811E-19
  -0.744  0.762E-01  0.762E-01  0.825E-19  0.825E-19
  -0.734  0.766E-01  0.766E-01  0.849E-19  0.849E-19
  -0.724  0.765E-01  0.765E-01  0.881E-19  0.881E-19
  -0.714  0.761E-01  0.761E-01  0.920E-19  0.920E-19
  -0.704  0.753E-01  0.753E-01  0.965E-19  0.965E-19
  -0.694  0.742E-01  0.742E-01  0.102E-18  0.102E-18
  -0.684  0.727E-01  0.727E-01  0.107E-18  0.107E-18
  -0.674  0.710E-01  0.710E-01  0.113E-18  0.113E-18
  -0.664  0.690E-01  0.690E-01  0.120E-18  0.120E-18
  -0.654  0.669E-01  0.669E-01  0.127E-18  0.127E-18
  -0.644  0.646E-01  0.646E-01  0.135E-18  0.135E-18
  -0.634  0.621E-01  0.621E-01  0.143E-18  0.143E-18
  -0.624  0.596E-01  0.596E-01  0.152E-18  0.152E-18
  -0.614  0.571E-01  0.571E-01  0.161E-18  0.161E-18
  -0.604  0.547E-01  0.547E-01  0.171E-18  0.171E-18
  -0.594  0.523E-01  0.523E-01  0.181E-18  0.181E-18
  -0.584  0.500E-01  0.500E-01  0.192E-18  0.192E-18
  -0.574  0.479E-01  0.479E-01  0.204E-18  0.204E-18
  -0.564  0.460E-01  0.460E-01  0.217E-18  0.217E-18
  -0.554  0.444E-01  0.444E-01  0.230E-18  0.230E-18
  -0.544  0.432E-01  0.432E-01  0.244E-18  0.244E-18
  -0.534  0.423E-01  0.423E-01  0.259E-18  0.259E-18
  -0.524  0.418E-01  0.418E-01  0.275E-18  0.275E-18
  -0.514  0.417E-01  0.417E-01  0.292E-18  0.292E-18
  -0.504  0.422E-01  0.422E-01  0.310E-18  0.310E-18
  -0.494  0.432E-01  0.432E-01  0.330E-18  0.330E-18
  -0.484  0.448E-01  0.448E-01  0.352E-18  0.352E-18
  -0.474  0.471E-01  0.471E-01  0.377E-18  0.377E-18
  -0.464  0.501E-01  0.501E-01  0.404E-18  0.404E-18
  -0.454  0.538E-01  0.538E-01  0.435E-18  0.435E-18
  -0.444  0.582E-01  0.582E-01  0.470E-18  0.470E-18
  -0.434  0.633E-01  0.633E-01  0.510E-18  0.510E-18
  -0.424  0.692E-01  0.692E-01  0.555E-18  0.555E-18
  -0.414  0.759E-01  0.759E-01  0.606E-18  0.606E-18
  -0.404  0.831E-01  0.831E-01  0.662E-18  0.662E-18
  -0.394  0.909E-01  0.909E-01  0.724E-18  0.724E-18
  -0.384  0.992E-01  0.992E-01  0.792E-18  0.792E-18
  -0.374  0.108E+00  0.108E+00  0.864E-18  0.864E-18
  -0.364  0.117E+00  0.117E+00  0.940E-18  0.940E-18
  -0.354  0.125E+00  0.125E+00  0.102E-17  0.102E-17
  -0.344  0.134E+00  0.134E+00  0.110E-17  0.110E-17
  -0.334  0.142E+00  0.142E+00  0.118E-17  0.118E-17
  -0.324  0.149E+00  0.149E+00  0.127E-17  0.127E-17
  -0.314  0.156E+00  0.156E+00  0.135E-17  0.135E-17
  -0.304  0.162E+00  0.162E+00  0.142E-17  0.142E-17
  -0.294  0.166E+00  0.166E+00  0.150E-17  0.150E-17
  -0.284  0.170E+00  0.170E+00  0.157E-17  0.157E-17
  -0.274  0.172E+00  0.172E+00  0.164E-17  0.164E-17
  -0.264  0.173E+00  0.173E+00  0.171E-17  0.171E-17
  -0.254  0.173E+00  0.173E+00  0.178E-17  0.178E-17
  -0.244  0.173E+00  0.173E+00  0.185E-17  0.185E-17
  -0.234  0.171E+00  0.171E+00  0.193E-17  0.193E-17
  -0.224  0.169E+00  0.169E+00  0.201E-17  0.201E-17
  -0.214  0.167E+00  0.167E+00  0.211E-17  0.211E-17
  -0.204  0.165E+00  0.165E+00  0.222E-17  0.222E-17
  -0.194  0.162E+00  0.162E+00  0.235E-17  0.235E-17
  -0.184  0.161E+00  0.161E+00  0.250E-17  0.250E-17
  -0.174  0.159E+00  0.159E+00  0.268E-17  0.268E-17
  -0.164  0.159E+00  0.159E+00  0.287E-17  0.287E-17
  -0.154  0.160E+00  0.160E+00  0.310E-17  0.310E-17
  -0.144  0.161E+00  0.161E+00  0.335E-17  0.335E-17
  -0.134  0.164E+00  0.164E+00  0.362E-17  0.362E-17
  -0.124  0.168E+00  0.168E+00  0.390E-17  0.390E-17
  -0.114  0.173E+00  0.173E+00  0.420E-17  0.420E-17
  -0.104  0.179E+00  0.179E+00  0.452E-17  0.452E-17
  -0.094  0.185E+00  0.185E+00  0.483E-17  0.483E-17
  -0.084  0.193E+00  0.193E+00  0.514E-17  0.514E-17
  -0.074  0.200E+00  0.200E+00  0.543E-17  0.543E-17
  -0.064  0.208E+00  0.208E+00  0.571E-17  0.571E-17
  -0.054  0.216E+00  0.216E+00  0.596E-17  0.596E-17
  -0.044  0.224E+00  0.224E+00  0.619E-17  0.619E-17
  -0.034  0.232E+00  0.232E+00  0.638E-17  0.638E-17
  -0.024  0.239E+00  0.239E+00  0.653E-17  0.653E-17
  -0.014  0.245E+00  0.245E+00  0.664E-17  0.664E-17
  -0.004  0.251E+00  0.251E+00  0.671E-17  0.671E-17
   0.006  0.256E+00  0.256E+00  0.674E-17  0.674E-17
   0.016  0.260E+00  0.260E+00  0.673E-17  0.673E-17
   0.026  0.263E+00  0.263E+00  0.668E-17  0.668E-17
   0.036  0.266E+00  0.266E+00  0.660E-17  0.660E-17
   0.046  0.268E+00  0.268E+00  0.650E-17  0.650E-17
   0.056  0.269E+00  0.269E+00  0.637E-17  0.637E-17
   0.066  0.269E+00  0.269E+00  0.622E-17  0.622E-17
   0.076  0.269E+00  0.269E+00  0.606E-17  0.606E-17
   0.086  0.268E+00  0.268E+00  0.588E-17  0.588E-17
   0.096  0.267E+00  0.267E+00  0.570E-17  0.570E-17
   0.106  0.266E+00  0.266E+00  0.551E-17  0.551E-17
   0.116  0.264E+00  0.264E+00  0.533E-17  0.533E-17
   0.126  0.262E+00  0.262E+00  0.515E-17  0.515E-17
   0.136  0.260E+00  0.260E+00  0.497E-17  0.497E-17
   0.146  0.258E+00  0.258E+00  0.480E-17  0.480E-17
   0.156  0.255E+00  0.255E+00  0.463E-17  0.463E-17
   0.166  0.253E+00  0.253E+00  0.447E-17  0.447E-17
   0.176  0.250E+00  0.250E+00  0.433E-17  0.433E-17
   0.186  0.247E+00  0.247E+00  0.419E-17  0.419E-17
   0.196  0.244E+00  0.244E+00  0.407E-17  0.407E-17
   0.206  0.241E+00  0.241E+00  0.395E-17  0.395E-17
   0.216  0.237E+00  0.237E+00  0.385E-17  0.385E-17
   0.226  0.234E+00  0.234E+00  0.376E-17  0.376E-17
   0.236  0.230E+00  0.230E+00  0.368E-17  0.368E-17
   0.246  0.226E+00  0.226E+00  0.361E-17  0.361E-17
   0.256  0.222E+00  0.222E+00  0.355E-17  0.355E-17
   0.266  0.218E+00  0.218E+00  0.349E-17  0.349E-17
   0.276  0.213E+00  0.213E+00  0.152E-15  0.152E-15
   0.286  0.208E+00  0.208E+00  0.317E-15  0.317E-15
   0.296  0.204E+00  0.204E+00  0.656E-15  0.656E-15
   0.306  0.198E+00  0.198E+00  0.135E-14  0.135E-14
   0.316  0.193E+00  0.193E+00  0.274E-14  0.274E-14
   0.326  0.187E+00  0.187E+00  0.553E-14  0.553E-14
   0.336  0.182E+00  0.182E+00  0.116E-13  0.116E-13
   0.346  0.176E+00  0.176E+00  0.230E-13  0.230E-13
   0.356  0.170E+00  0.170E+00  0.451E-13  0.451E-13
   0.366  0.164E+00  0.164E+00  0.884E-13  0.884E-13
   0.376  0.159E+00  0.159E+00  0.170E-12  0.170E-12
   0.386  0.153E+00  0.153E+00  0.322E-12  0.322E-12
   0.396  0.148E+00  0.148E+00  0.605E-12  0.605E-12
   0.406  0.143E+00  0.143E+00  0.113E-11  0.113E-11
   0.416  0.139E+00  0.139E+00  0.207E-11  0.207E-11
   0.426  0.135E+00  0.135E+00  0.377E-11  0.377E-11
   0.436  0.132E+00  0.132E+00  0.680E-11  0.680E-11
   0.446  0.129E+00  0.129E+00  0.121E-10  0.121E-10
   0.456  0.127E+00  0.127E+00  0.214E-10  0.214E-10
   0.466  0.126E+00  0.126E+00  0.374E-10  0.374E-10
   0.476  0.125E+00  0.125E+00  0.647E-10  0.647E-10
   0.486  0.125E+00  0.125E+00  0.111E-09  0.111E-09
   0.496  0.126E+00  0.126E+00  0.188E-09  0.188E-09
   0.506  0.128E+00  0.128E+00  0.315E-09  0.315E-09
   0.516  0.130E+00  0.130E+00  0.523E-09  0.523E-09
   0.526  0.132E+00  0.132E+00  0.859E-09  0.859E-09
   0.536  0.135E+00  0.135E+00  0.140E-08  0.140E-08
   0.546  0.137E+00  0.137E+00  0.225E-08  0.225E-08
   0.556  0.140E+00  0.140E+00  0.359E-08  0.359E-08
   0.566  0.143E+00  0.143E+00  0.566E-08  0.566E-08
   0.576  0.145E+00  0.145E+00  0.885E-08  0.885E-08
   0.586  0.147E+00  0.147E+00  0.137E-07  0.137E-07
   0.596  0.149E+00  0.149E+00  0.210E-07  0.210E-07
   0.606  0.150E+00  0.150E+00  0.318E-07  0.318E-07
   0.616  0.151E+00  0.151E+00  0.478E-07  0.478E-07
   0.626  0.151E+00  0.151E+00  0.712E-07  0.712E-07
   0.636  0.151E+00  0.151E+00  0.105E-06  0.105E-06
   0.646  0.150E+00  0.150E+00  0.153E-06  0.153E-06
   0.656  0.149E+00  0.149E+00  0.221E-06  0.221E-06
   0.666  0.148E+00  0.148E+00  0.317E-06  0.317E-06
   0.676  0.147E+00  0.147E+00  0.450E-06  0.450E-06
   0.686  0.146E+00  0.146E+00  0.632E-06  0.632E-06
   0.696  0.145E+00  0.145E+00  0.879E-06  0.879E-06
   0.706  0.144E+00  0.144E+00  0.121E-05  0.121E-05
   0.716  0.144E+00  0.144E+00  0.166E-05  0.166E-05
   0.726  0.144E+00  0.144E+00  0.224E-05  0.224E-05
   0.736  0.145E+00  0.145E+00  0.301E-05  0.301E-05
   0.746  0.146E+00  0.146E+00  0.400E-05  0.400E-05
   0.756  0.147E+00  0.147E+00  0.527E-05  0.527E-05
   0.766  0.149E+00  0.149E+00  0.688E-05  0.688E-05
   0.776  0.151E+00  0.151E+00  0.891E-05  0.891E-05
   0.786  0.153E+00  0.153E+00  0.114E-04  0.114E-04
   0.796  0.155E+00  0.155E+00  0.145E-04  0.145E-04
   0.806  0.157E+00  0.157E+00  0.183E-04  0.183E-04
   0.816  0.159E+00  0.159E+00  0.229E-04  0.229E-04
   0.826  0.160E+00  0.160E+00  0.285E-04  0.285E-04
   0.836  0.161E+00  0.161E+00  0.350E-04  0.350E-04
   0.846  0.162E+00  0.162E+00  0.427E-04  0.427E-04
   0.856  0.161E+00  0.161E+00  0.517E-04  0.517E-04
   0.866  0.161E+00  0.160E+00  0.622E-04  0.622E-04
   0.876  0.159E+00  0.159E+00  0.741E-04  0.741E-04
   0.886  0.157E+00  0.157E+00  0.877E-04  0.877E-04
   0.896  0.154E+00  0.154E+00  0.103E-03  0.103E-03
   0.906  0.151E+00  0.150E+00  0.120E-03  0.120E-03
   0.916  0.147E+00  0.146E+00  0.139E-03  0.139E-03
   0.926  0.142E+00  0.142E+00  0.160E-03  0.160E-03
   0.936  0.137E+00  0.137E+00  0.183E-03  0.183E-03
   0.946  0.132E+00  0.132E+00  0.207E-03  0.207E-03
   0.956  0.127E+00  0.127E+00  0.234E-03  0.234E-03
   0.966  0.122E+00  0.121E+00  0.262E-03  0.262E-03
   0.976  0.117E+00  0.116E+00  0.293E-03  0.293E-03
   0.986  0.111E+00  0.111E+00  0.324E-03  0.324E-03
   0.996  0.107E+00  0.106E+00  0.358E-03  0.358E-03
   1.006  0.102E+00  0.101E+00  0.392E-03  0.392E-03
   1.016  0.979E-01  0.971E-01  0.428E-03  0.428E-03
   1.026  0.943E-01  0.934E-01  0.465E-03  0.465E-03
   1.036  0.911E-01  0.901E-01  0.502E-03  0.502E-03
   1.046  0.886E-01  0.875E-01  0.540E-03  0.540E-03
   1.056  0.866E-01  0.855E-01  0.579E-03  0.579E-03
   1.066  0.853E-01  0.841E-01  0.618E-03  0.618E-03
   1.076  0.846E-01  0.833E-01  0.657E-03  0.657E-03
   1.086  0.847E-01  0.833E-01  0.696E-03  0.696E-03
   1.096  0.853E-01  0.839E-01  0.735E-03  0.735E-03
   1.106  0.867E-01  0.851E-01  0.774E-03  0.774E-03
   1.116  0.887E-01  0.871E-01  0.812E-03  0.812E-03
   1.126  0.913E-01  0.896E-01  0.850E-03  0.850E-03
   1.136  0.945E-01  0.927E-01  0.888E-03  0.888E-03
   1.146  0.982E-01  0.964E-01  0.926E-03  0.926E-03
   1.156  0.102E+00  0.100E+00  0.963E-03  0.963E-03
   1.166  0.107E+00  0.105E+00  0.999E-03  0.999E-03
   1.176  0.112E+00  0.110E+00  0.104E-02  0.104E-02
   1.186  0.116E+00  0.114E+00  0.107E-02  0.107E-02
   1.196  0.121E+00  0.119E+00  0.111E-02  0.111E-02
   1.206  0.126E+00  0.124E+00  0.114E-02  0.114E-02
   1.216  0.130E+00  0.128E+00  0.118E-02  0.118E-02
   1.226  0.134E+00  0.132E+00  0.121E-02  0.121E-02
   1.236  0.138E+00  0.135E+00  0.124E-02  0.124E-02
   1.246  0.141E+00  0.138E+00  0.127E-02  0.127E-02
   1.256  0.143E+00  0.140E+00  0.130E-02  0.130E-02
   1.266  0.144E+00  0.142E+00  0.133E-02  0.133E-02
   1.276  0.145E+00  0.142E+00  0.136E-02  0.136E-02
   1.286  0.145E+00  0.142E+00  0.138E-02  0.138E-02
   1.296  0.145E+00  0.142E+00  0.141E-02  0.141E-02
   1.306  0.144E+00  0.141E+00  0.143E-02  0.143E-02
   1.316  0.142E+00  0.139E+00  0.145E-02  0.145E-02
   1.326  0.140E+00  0.137E+00  0.148E-02  0.148E-02
   1.336  0.138E+00  0.135E+00  0.150E-02  0.150E-02
   1.346  0.135E+00  0.132E+00  0.152E-02  0.152E-02
   1.356  0.133E+00  0.130E+00  0.155E-02  0.155E-02
   1.366  0.130E+00  0.127E+00  0.157E-02  0.157E-02
   1.376  0.128E+00  0.125E+00  0.160E-02  0.160E-02
   1.386  0.125E+00  0.122E+00  0.163E-02  0.163E-02
   1.396  0.123E+00  0.120E+00  0.165E-02  0.165E-02
   1.406  0.122E+00  0.118E+00  0.168E-02  0.168E-02
   1.416  0.120E+00  0.117E+00  0.171E-02  0.171E-02
   1.426  0.119E+00  0.116E+00  0.174E-02  0.174E-02
   1.436  0.118E+00  0.114E+00  0.176E-02  0.176E-02
   1.446  0.117E+00  0.114E+00  0.179E-02  0.179E-02
   1.456  0.117E+00  0.113E+00  0.181E-02  0.181E-02
   1.466  0.116E+00  0.113E+00  0.183E-02  0.183E-02
   1.476  0.116E+00  0.112E+00  0.184E-02  0.184E-02
   1.486  0.116E+00  0.112E+00  0.185E-02  0.185E-02
   1.496  0.116E+00  0.112E+00  0.186E-02  0.186E-02
   1.506  0.116E+00  0.112E+00  0.187E-02  0.187E-02
   1.516  0.115E+00  0.112E+00  0.187E-02  0.187E-02
   1.526  0.116E+00  0.112E+00  0.188E-02  0.188E-02
   1.536  0.116E+00  0.112E+00  0.188E-02  0.188E-02
   1.546  0.116E+00  0.112E+00  0.189E-02  0.189E-02
   1.556  0.116E+00  0.112E+00  0.189E-02  0.189E-02
   1.566  0.115E+00  0.112E+00  0.190E-02  0.190E-02
   1.576  0.115E+00  0.112E+00  0.191E-02  0.191E-02
   1.586  0.115E+00  0.111E+00  0.192E-02  0.192E-02
   1.596  0.115E+00  0.111E+00  0.194E-02  0.194E-02
   1.606  0.114E+00  0.110E+00  0.197E-02  0.197E-02
   1.616  0.114E+00  0.110E+00  0.199E-02  0.199E-02
   1.626  0.113E+00  0.109E+00  0.202E-02  0.202E-02
   1.636  0.112E+00  0.108E+00  0.205E-02  0.205E-02
   1.646  0.110E+00  0.106E+00  0.208E-02  0.208E-02
   1.656  0.109E+00  0.105E+00  0.212E-02  0.212E-02
   1.666  0.107E+00  0.103E+00  0.215E-02  0.215E-02
   1.676  0.105E+00  0.101E+00  0.218E-02  0.218E-02
   1.686  0.103E+00  0.987E-01  0.220E-02  0.220E-02
   1.696  0.101E+00  0.964E-01  0.222E-02  0.222E-02
   1.706  0.984E-01  0.939E-01  0.223E-02  0.223E-02
   1.716  0.958E-01  0.914E-01  0.224E-02  0.224E-02
   1.726  0.933E-01  0.888E-01  0.225E-02  0.225E-02
   1.736  0.907E-01  0.862E-01  0.224E-02  0.224E-02
   1.746  0.882E-01  0.837E-01  0.223E-02  0.223E-02
   1.756  0.858E-01  0.814E-01  0.222E-02  0.222E-02
   1.766  0.836E-01  0.792E-01  0.221E-02  0.221E-02
   1.776  0.817E-01  0.773E-01  0.219E-02  0.219E-02
   1.786  0.801E-01  0.758E-01  0.217E-02  0.217E-02
   1.796  0.789E-01  0.746E-01  0.215E-02  0.215E-02
   1.806  0.782E-01  0.739E-01  0.214E-02  0.214E-02
   1.816  0.780E-01  0.737E-01  0.213E-02  0.213E-02
   1.826  0.783E-01  0.741E-01  0.212E-02  0.212E-02
   1.836  0.793E-01  0.751E-01  0.213E-02  0.213E-02
   1.846  0.810E-01  0.767E-01  0.214E-02  0.214E-02
   1.856  0.833E-01  0.790E-01  0.215E-02  0.215E-02
   1.866  0.864E-01  0.820E-01  0.218E-02  0.218E-02
   1.876  0.901E-01  0.856E-01  0.221E-02  0.221E-02
   1.886  0.944E-01  0.899E-01  0.225E-02  0.225E-02
   1.896  0.993E-01  0.947E-01  0.229E-02  0.229E-02
   1.906  0.105E+00  0.999E-01  0.234E-02  0.234E-02
   1.916  0.110E+00  0.106E+00  0.239E-02  0.239E-02
   1.926  0.116E+00  0.111E+00  0.243E-02  0.243E-02
   1.936  0.122E+00  0.117E+00  0.248E-02  0.248E-02
   1.946  0.128E+00  0.123E+00  0.252E-02  0.252E-02
   1.956  0.134E+00  0.129E+00  0.256E-02  0.256E-02
   1.966  0.139E+00  0.134E+00  0.258E-02  0.258E-02
   1.976  0.144E+00  0.139E+00  0.260E-02  0.260E-02
   1.986  0.148E+00  0.143E+00  0.261E-02  0.261E-02
   1.996  0.151E+00  0.146E+00  0.261E-02  0.261E-02
   2.006  0.154E+00  0.148E+00  0.261E-02  0.261E-02
   2.016  0.155E+00  0.150E+00  0.259E-02  0.259E-02
   2.026  0.155E+00  0.150E+00  0.257E-02  0.257E-02
   2.036  0.155E+00  0.150E+00  0.254E-02  0.254E-02
   2.046  0.153E+00  0.148E+00  0.250E-02  0.250E-02
   2.056  0.150E+00  0.145E+00  0.246E-02  0.246E-02
   2.066  0.146E+00  0.142E+00  0.242E-02  0.242E-02
   2.076  0.142E+00  0.137E+00  0.238E-02  0.238E-02
   2.086  0.137E+00  0.132E+00  0.234E-02  0.234E-02
   2.096  0.131E+00  0.127E+00  0.231E-02  0.231E-02
   2.106  0.125E+00  0.121E+00  0.228E-02  0.228E-02
   2.116  0.119E+00  0.114E+00  0.226E-02  0.226E-02
   2.126  0.113E+00  0.108E+00  0.224E-02  0.224E-02
   2.136  0.106E+00  0.102E+00  0.223E-02  0.223E-02
   2.146  0.100E+00  0.958E-01  0.224E-02  0.224E-02
   2.156  0.946E-01  0.901E-01  0.225E-02  0.225E-02
   2.166  0.893E-01  0.847E-01  0.227E-02  0.227E-02
   2.176  0.846E-01  0.799E-01  0.230E-02  0.230E-02
   2.186  0.804E-01  0.757E-01  0.234E-02  0.234E-02
   2.196  0.769E-01  0.721E-01  0.239E-02  0.239E-02
   2.206  0.740E-01  0.691E-01  0.245E-02  0.245E-02
   2.216  0.718E-01  0.668E-01  0.251E-02  0.251E-02
   2.226  0.702E-01  0.651E-01  0.257E-02  0.257E-02
   2.236  0.692E-01  0.639E-01  0.263E-02  0.263E-02
   2.246  0.687E-01  0.633E-01  0.268E-02  0.268E-02
   2.256  0.688E-01  0.633E-01  0.273E-02  0.273E-02
   2.266  0.692E-01  0.637E-01  0.278E-02  0.278E-02
   2.276  0.701E-01  0.645E-01  0.282E-02  0.282E-02
   2.286  0.714E-01  0.657E-01  0.284E-02  0.284E-02
   2.296  0.729E-01  0.672E-01  0.286E-02  0.286E-02
   2.306  0.748E-01  0.691E-01  0.286E-02  0.286E-02
   2.316  0.769E-01  0.712E-01  0.285E-02  0.285E-02
   2.326  0.792E-01  0.735E-01  0.283E-02  0.283E-02
   2.336  0.817E-01  0.761E-01  0.279E-02  0.279E-02
   2.346  0.843E-01  0.788E-01  0.275E-02  0.275E-02
   2.356  0.870E-01  0.816E-01  0.270E-02  0.270E-02
   2.366  0.898E-01  0.845E-01  0.264E-02  0.264E-02
   2.376  0.927E-01  0.875E-01  0.258E-02  0.258E-02
   2.386  0.955E-01  0.904E-01  0.252E-02  0.252E-02
   2.396  0.982E-01  0.933E-01  0.245E-02  0.245E-02
   2.406  0.101E+00  0.960E-01  0.239E-02  0.239E-02
   2.416  0.103E+00  0.984E-01  0.234E-02  0.234E-02
   2.426  0.105E+00  0.101E+00  0.229E-02  0.229E-02
   2.436  0.107E+00  0.102E+00  0.225E-02  0.225E-02
   2.446  0.108E+00  0.104E+00  0.222E-02  0.222E-02
   2.456  0.109E+00  0.105E+00  0.219E-02  0.219E-02
   2.466  0.110E+00  0.105E+00  0.218E-02  0.218E-02
   2.476  0.110E+00  0.105E+00  0.218E-02  0.218E-02
   2.486  0.109E+00  0.105E+00  0.219E-02  0.219E-02
   2.496  0.108E+00  0.104E+00  0.220E-02  0.220E-02
   2.506  0.107E+00  0.102E+00  0.223E-02  0.223E-02
   2.516  0.105E+00  0.101E+00  0.227E-02  0.227E-02
   2.526  0.103E+00  0.987E-01  0.231E-02  0.231E-02
   2.536  0.101E+00  0.965E-01  0.236E-02  0.236E-02
   2.546  0.990E-01  0.942E-01  0.241E-02  0.241E-02
   2.556  0.968E-01  0.919E-01  0.247E-02  0.247E-02
   2.566  0.948E-01  0.897E-01  0.253E-02  0.253E-02
   2.576  0.929E-01  0.878E-01  0.258E-02  0.258E-02
   2.586  0.914E-01  0.861E-01  0.264E-02  0.264E-02
   2.596  0.903E-01  0.849E-01  0.269E-02  0.269E-02
   2.606  0.897E-01  0.842E-01  0.274E-02  0.274E-02
   2.616  0.895E-01  0.839E-01  0.279E-02  0.279E-02
   2.626  0.899E-01  0.842E-01  0.282E-02  0.282E-02
   2.636  0.907E-01  0.850E-01  0.285E-02  0.285E-02
   2.646  0.921E-01  0.864E-01  0.287E-02  0.287E-02
   2.656  0.939E-01  0.882E-01  0.288E-02  0.288E-02
   2.666  0.961E-01  0.904E-01  0.288E-02  0.288E-02
   2.676  0.986E-01  0.929E-01  0.287E-02  0.287E-02
   2.686  0.101E+00  0.956E-01  0.284E-02  0.284E-02
   2.696  0.104E+00  0.985E-01  0.281E-02  0.281E-02
   2.706  0.107E+00  0.101E+00  0.277E-02  0.277E-02
   2.716  0.110E+00  0.104E+00  0.272E-02  0.272E-02
   2.726  0.112E+00  0.107E+00  0.266E-02  0.266E-02
   2.736  0.115E+00  0.109E+00  0.260E-02  0.260E-02
   2.746  0.116E+00  0.111E+00  0.253E-02  0.253E-02
   2.756  0.118E+00  0.113E+00  0.246E-02  0.246E-02
   2.766  0.119E+00  0.114E+00  0.239E-02  0.239E-02
   2.776  0.120E+00  0.115E+00  0.232E-02  0.232E-02
   2.786  0.120E+00  0.115E+00  0.225E-02  0.225E-02
   2.796  0.120E+00  0.115E+00  0.219E-02  0.219E-02
   2.806  0.119E+00  0.114E+00  0.213E-02  0.213E-02
   2.816  0.117E+00  0.113E+00  0.208E-02  0.208E-02
   2.826  0.116E+00  0.112E+00  0.204E-02  0.204E-02
   2.836  0.113E+00  0.109E+00  0.201E-02  0.201E-02
   2.846  0.111E+00  0.107E+00  0.199E-02  0.199E-02
   2.856  0.108E+00  0.104E+00  0.198E-02  0.198E-02
   2.866  0.105E+00  0.101E+00  0.198E-02  0.198E-02
   2.876  0.102E+00  0.979E-01  0.200E-02  0.200E-02
   2.886  0.986E-01  0.945E-01  0.203E-02  0.203E-02
   2.896  0.951E-01  0.909E-01  0.206E-02  0.206E-02
   2.906  0.915E-01  0.873E-01  0.211E-02  0.211E-02
   2.916  0.880E-01  0.837E-01  0.216E-02  0.216E-02
   2.926  0.846E-01  0.802E-01  0.222E-02  0.222E-02
   2.936  0.813E-01  0.768E-01  0.228E-02  0.228E-02
   2.946  0.782E-01  0.735E-01  0.234E-02  0.234E-02
   2.956  0.753E-01  0.705E-01  0.241E-02  0.241E-02
   2.966  0.727E-01  0.677E-01  0.247E-02  0.247E-02
   2.976  0.703E-01  0.652E-01  0.253E-02  0.253E-02
   2.986  0.682E-01  0.630E-01  0.259E-02  0.259E-02
   2.996  0.664E-01  0.611E-01  0.263E-02  0.263E-02
   3.006  0.649E-01  0.595E-01  0.268E-02  0.268E-02
   3.016  0.636E-01  0.582E-01  0.271E-02  0.271E-02
   3.026  0.627E-01  0.572E-01  0.273E-02  0.273E-02
   3.036  0.619E-01  0.564E-01  0.275E-02  0.275E-02
   3.046  0.614E-01  0.559E-01  0.275E-02  0.275E-02
   3.056  0.611E-01  0.556E-01  0.275E-02  0.275E-02
   3.066  0.610E-01  0.555E-01  0.274E-02  0.274E-02
   3.076  0.611E-01  0.556E-01  0.272E-02  0.272E-02
   3.086  0.614E-01  0.560E-01  0.270E-02  0.270E-02
   3.096  0.619E-01  0.565E-01  0.266E-02  0.266E-02
   3.106  0.626E-01  0.573E-01  0.262E-02  0.262E-02
   3.116  0.636E-01  0.584E-01  0.258E-02  0.258E-02
   3.126  0.648E-01  0.598E-01  0.253E-02  0.253E-02
   3.136  0.665E-01  0.615E-01  0.248E-02  0.248E-02
   3.146  0.685E-01  0.636E-01  0.242E-02  0.242E-02
   3.156  0.709E-01  0.661E-01  0.236E-02  0.236E-02
   3.166  0.737E-01  0.691E-01  0.229E-02  0.229E-02
   3.176  0.769E-01  0.724E-01  0.223E-02  0.223E-02
   3.186  0.805E-01  0.762E-01  0.216E-02  0.216E-02
   3.196  0.845E-01  0.803E-01  0.210E-02  0.210E-02
   3.206  0.888E-01  0.847E-01  0.204E-02  0.204E-02
   3.216  0.933E-01  0.894E-01  0.197E-02  0.197E-02
   3.226  0.980E-01  0.942E-01  0.191E-02  0.191E-02
   3.236  0.103E+00  0.991E-01  0.186E-02  0.186E-02
   3.246  0.107E+00  0.104E+00  0.181E-02  0.181E-02
   3.256  0.112E+00  0.108E+00  0.177E-02  0.177E-02
   3.266  0.116E+00  0.113E+00  0.173E-02  0.173E-02
   3.276  0.120E+00  0.116E+00  0.171E-02  0.171E-02
   3.286  0.123E+00  0.120E+00  0.169E-02  0.169E-02
   3.296  0.126E+00  0.122E+00  0.169E-02  0.169E-02
   3.306  0.128E+00  0.124E+00  0.170E-02  0.170E-02
   3.316  0.129E+00  0.125E+00  0.172E-02  0.172E-02
   3.326  0.129E+00  0.126E+00  0.175E-02  0.175E-02
   3.336  0.129E+00  0.125E+00  0.180E-02  0.180E-02
   3.346  0.128E+00  0.124E+00  0.185E-02  0.185E-02
   3.356  0.126E+00  0.122E+00  0.192E-02  0.192E-02
   3.366  0.123E+00  0.119E+00  0.199E-02  0.199E-02
   3.376  0.120E+00  0.116E+00  0.207E-02  0.207E-02
   3.386  0.117E+00  0.113E+00  0.215E-02  0.215E-02
   3.396  0.113E+00  0.109E+00  0.224E-02  0.224E-02
   3.406  0.109E+00  0.104E+00  0.232E-02  0.232E-02
   3.416  0.104E+00  0.997E-01  0.239E-02  0.239E-02
   3.426  0.999E-01  0.950E-01  0.246E-02  0.246E-02
   3.436  0.954E-01  0.904E-01  0.253E-02  0.253E-02
   3.446  0.910E-01  0.858E-01  0.257E-02  0.257E-02
   3.456  0.867E-01  0.815E-01  0.261E-02  0.261E-02
   3.466  0.827E-01  0.774E-01  0.263E-02  0.263E-02
   3.476  0.789E-01  0.736E-01  0.264E-02  0.264E-02
   3.486  0.755E-01  0.703E-01  0.264E-02  0.264E-02
   3.496  0.725E-01  0.673E-01  0.262E-02  0.262E-02
   3.506  0.699E-01  0.648E-01  0.259E-02  0.259E-02
   3.516  0.678E-01  0.627E-01  0.255E-02  0.255E-02
   3.526  0.661E-01  0.611E-01  0.250E-02  0.250E-02
   3.536  0.648E-01  0.599E-01  0.244E-02  0.244E-02
   3.546  0.639E-01  0.591E-01  0.238E-02  0.238E-02
   3.556  0.634E-01  0.588E-01  0.231E-02  0.231E-02
   3.566  0.632E-01  0.588E-01  0.224E-02  0.224E-02
   3.576  0.634E-01  0.591E-01  0.217E-02  0.217E-02
   3.586  0.639E-01  0.597E-01  0.210E-02  0.210E-02
   3.596  0.646E-01  0.605E-01  0.203E-02  0.203E-02
   3.606  0.655E-01  0.615E-01  0.197E-02  0.197E-02
   3.616  0.666E-01  0.627E-01  0.190E-02  0.190E-02
   3.626  0.677E-01  0.641E-01  0.185E-02  0.185E-02
   3.636  0.690E-01  0.654E-01  0.179E-02  0.179E-02
   3.646  0.704E-01  0.669E-01  0.174E-02  0.174E-02
   3.656  0.718E-01  0.684E-01  0.170E-02  0.170E-02
   3.666  0.732E-01  0.698E-01  0.166E-02  0.166E-02
   3.676  0.745E-01  0.713E-01  0.162E-02  0.162E-02
   3.686  0.759E-01  0.727E-01  0.159E-02  0.159E-02
   3.696  0.771E-01  0.740E-01  0.156E-02  0.156E-02
   3.706  0.783E-01  0.752E-01  0.154E-02  0.154E-02
   3.716  0.794E-01  0.763E-01  0.152E-02  0.152E-02
   3.726  0.803E-01  0.773E-01  0.151E-02  0.151E-02
   3.736  0.811E-01  0.781E-01  0.150E-02  0.150E-02
   3.746  0.817E-01  0.787E-01  0.150E-02  0.150E-02
   3.756  0.822E-01  0.792E-01  0.150E-02  0.150E-02
   3.766  0.824E-01  0.794E-01  0.150E-02  0.150E-02
   3.776  0.824E-01  0.794E-01  0.152E-02  0.152E-02
   3.786  0.823E-01  0.792E-01  0.153E-02  0.153E-02
   3.796  0.819E-01  0.788E-01  0.156E-02  0.156E-02
   3.806  0.813E-01  0.782E-01  0.159E-02  0.159E-02
   3.816  0.806E-01  0.773E-01  0.163E-02  0.163E-02
   3.826  0.797E-01  0.764E-01  0.167E-02  0.167E-02
   3.836  0.787E-01  0.752E-01  0.172E-02  0.172E-02
   3.846  0.775E-01  0.739E-01  0.178E-02  0.178E-02
   3.856  0.763E-01  0.726E-01  0.183E-02  0.183E-02
   3.866  0.750E-01  0.712E-01  0.190E-02  0.190E-02
   3.876  0.737E-01  0.698E-01  0.196E-02  0.196E-02
   3.886  0.724E-01  0.684E-01  0.202E-02  0.202E-02
   3.896  0.713E-01  0.671E-01  0.209E-02  0.209E-02
   3.906  0.702E-01  0.660E-01  0.214E-02  0.214E-02
   3.916  0.694E-01  0.650E-01  0.220E-02  0.220E-02
   3.926  0.689E-01  0.644E-01  0.224E-02  0.224E-02
   3.936  0.686E-01  0.640E-01  0.228E-02  0.228E-02
   3.946  0.687E-01  0.641E-01  0.231E-02  0.231E-02
   3.956  0.692E-01  0.646E-01  0.233E-02  0.233E-02
   3.966  0.702E-01  0.655E-01  0.233E-02  0.233E-02
   3.976  0.716E-01  0.670E-01  0.233E-02  0.233E-02
   3.986  0.735E-01  0.689E-01  0.231E-02  0.231E-02
   3.996  0.759E-01  0.714E-01  0.228E-02  0.228E-02
   4.006  0.788E-01  0.743E-01  0.223E-02  0.223E-02
   4.016  0.820E-01  0.776E-01  0.218E-02  0.218E-02
   4.026  0.855E-01  0.813E-01  0.212E-02  0.212E-02
   4.036  0.894E-01  0.852E-01  0.206E-02  0.206E-02
   4.046  0.933E-01  0.893E-01  0.199E-02  0.199E-02
   4.056  0.973E-01  0.935E-01  0.191E-02  0.191E-02
   4.066  0.101E+00  0.976E-01  0.184E-02  0.184E-02
   4.076  0.105E+00  0.101E+00  0.176E-02  0.176E-02
   4.086  0.108E+00  0.105E+00  0.169E-02  0.169E-02
   4.096  0.111E+00  0.108E+00  0.162E-02  0.162E-02
   4.106  0.114E+00  0.111E+00  0.155E-02  0.155E-02
   4.116  0.115E+00  0.112E+00  0.149E-02  0.149E-02
   4.126  0.116E+00  0.114E+00  0.143E-02  0.143E-02
   4.136  0.117E+00  0.114E+00  0.138E-02  0.138E-02
   4.146  0.116E+00  0.114E+00  0.133E-02  0.133E-02
   4.156  0.115E+00  0.112E+00  0.129E-02  0.129E-02
   4.166  0.113E+00  0.110E+00  0.126E-02  0.126E-02
   4.176  0.110E+00  0.108E+00  0.123E-02  0.123E-02
   4.186  0.107E+00  0.104E+00  0.121E-02  0.121E-02
   4.196  0.103E+00  0.100E+00  0.120E-02  0.120E-02
   4.206  0.982E-01  0.958E-01  0.119E-02  0.119E-02
   4.216  0.933E-01  0.909E-01  0.119E-02  0.119E-02
   4.226  0.882E-01  0.858E-01  0.119E-02  0.119E-02
   4.236  0.829E-01  0.805E-01  0.120E-02  0.120E-02
   4.246  0.777E-01  0.752E-01  0.121E-02  0.121E-02
   4.256  0.725E-01  0.701E-01  0.123E-02  0.123E-02
   4.266  0.676E-01  0.651E-01  0.126E-02  0.126E-02
   4.276  0.629E-01  0.604E-01  0.128E-02  0.128E-02
   4.286  0.587E-01  0.561E-01  0.132E-02  0.132E-02
   4.296  0.549E-01  0.522E-01  0.135E-02  0.135E-02
   4.306  0.517E-01  0.489E-01  0.139E-02  0.139E-02
   4.316  0.490E-01  0.461E-01  0.142E-02  0.142E-02
   4.326  0.469E-01  0.440E-01  0.146E-02  0.146E-02
   4.336  0.454E-01  0.424E-01  0.150E-02  0.150E-02
   4.346  0.444E-01  0.414E-01  0.154E-02  0.154E-02
   4.356  0.440E-01  0.409E-01  0.158E-02  0.158E-02
   4.366  0.442E-01  0.409E-01  0.161E-02  0.161E-02
   4.376  0.447E-01  0.414E-01  0.165E-02  0.165E-02
   4.386  0.457E-01  0.424E-01  0.168E-02  0.168E-02
   4.396  0.470E-01  0.436E-01  0.171E-02  0.171E-02
   4.406  0.486E-01  0.452E-01  0.173E-02  0.173E-02
   4.416  0.505E-01  0.469E-01  0.176E-02  0.176E-02
   4.426  0.524E-01  0.489E-01  0.178E-02  0.178E-02
   4.436  0.545E-01  0.510E-01  0.179E-02  0.179E-02
   4.446  0.567E-01  0.531E-01  0.180E-02  0.180E-02
   4.456  0.589E-01  0.553E-01  0.181E-02  0.181E-02
   4.466  0.611E-01  0.575E-01  0.182E-02  0.182E-02
   4.476  0.634E-01  0.597E-01  0.182E-02  0.182E-02
   4.486  0.656E-01  0.619E-01  0.181E-02  0.181E-02
   4.496  0.677E-01  0.641E-01  0.180E-02  0.180E-02
   4.506  0.699E-01  0.663E-01  0.179E-02  0.179E-02
   4.516  0.720E-01  0.685E-01  0.178E-02  0.178E-02
   4.526  0.741E-01  0.706E-01  0.176E-02  0.176E-02
   4.536  0.761E-01  0.727E-01  0.173E-02  0.173E-02
   4.546  0.781E-01  0.747E-01  0.171E-02  0.171E-02
   4.556  0.801E-01  0.767E-01  0.167E-02  0.167E-02
   4.566  0.819E-01  0.786E-01  0.164E-02  0.164E-02
   4.576  0.837E-01  0.805E-01  0.160E-02  0.160E-02
   4.586  0.853E-01  0.822E-01  0.156E-02  0.156E-02
   4.596  0.868E-01  0.838E-01  0.151E-02  0.151E-02
   4.606  0.881E-01  0.852E-01  0.146E-02  0.146E-02
   4.616  0.892E-01  0.864E-01  0.141E-02  0.141E-02
   4.626  0.901E-01  0.874E-01  0.136E-02  0.136E-02
   4.636  0.908E-01  0.882E-01  0.131E-02  0.131E-02
   4.646  0.913E-01  0.888E-01  0.126E-02  0.126E-02
   4.656  0.915E-01  0.891E-01  0.121E-02  0.121E-02
   4.666  0.916E-01  0.892E-01  0.117E-02  0.117E-02
   4.676  0.913E-01  0.891E-01  0.112E-02  0.112E-02
   4.686  0.909E-01  0.888E-01  0.108E-02  0.108E-02
   4.696  0.903E-01  0.882E-01  0.104E-02  0.104E-02
   4.706  0.895E-01  0.875E-01  0.101E-02  0.101E-02
   4.716  0.886E-01  0.866E-01  0.979E-03  0.979E-03
   4.726  0.875E-01  0.856E-01  0.953E-03  0.953E-03
   4.736  0.863E-01  0.844E-01  0.932E-03  0.932E-03
   4.746  0.850E-01  0.831E-01  0.915E-03  0.915E-03
   4.756  0.835E-01  0.817E-01  0.902E-03  0.902E-03
   4.766  0.820E-01  0.802E-01  0.895E-03  0.895E-03
   4.776  0.803E-01  0.785E-01  0.891E-03  0.891E-03
   4.786  0.785E-01  0.767E-01  0.892E-03  0.892E-03
   4.796  0.765E-01  0.747E-01  0.898E-03  0.898E-03
   4.806  0.744E-01  0.726E-01  0.909E-03  0.909E-03
   4.816  0.721E-01  0.703E-01  0.924E-03  0.924E-03
   4.826  0.697E-01  0.678E-01  0.944E-03  0.944E-03
   4.836  0.672E-01  0.652E-01  0.969E-03  0.969E-03
   4.846  0.645E-01  0.625E-01  0.998E-03  0.998E-03
   4.856  0.616E-01  0.596E-01  0.103E-02  0.103E-02
   4.866  0.587E-01  0.565E-01  0.107E-02  0.107E-02
   4.876  0.557E-01  0.535E-01  0.111E-02  0.111E-02
   4.886  0.527E-01  0.504E-01  0.115E-02  0.115E-02
   4.896  0.497E-01  0.473E-01  0.120E-02  0.120E-02
   4.906  0.468E-01  0.443E-01  0.124E-02  0.124E-02
   4.916  0.441E-01  0.415E-01  0.129E-02  0.129E-02
   4.926  0.416E-01  0.389E-01  0.133E-02  0.133E-02
   4.936  0.393E-01  0.366E-01  0.137E-02  0.137E-02
   4.946  0.374E-01  0.346E-01  0.141E-02  0.141E-02
   4.956  0.359E-01  0.330E-01  0.144E-02  0.144E-02
   4.966  0.348E-01  0.318E-01  0.147E-02  0.147E-02
   4.976  0.341E-01  0.311E-01  0.149E-02  0.149E-02
   4.986  0.339E-01  0.309E-01  0.150E-02  0.150E-02
   4.996  0.342E-01  0.311E-01  0.150E-02  0.150E-02
   5.006  0.349E-01  0.319E-01  0.150E-02  0.150E-02
   5.016  0.361E-01  0.331E-01  0.149E-02  0.149E-02
   5.026  0.376E-01  0.347E-01  0.148E-02  0.148E-02
   5.036  0.396E-01  0.367E-01  0.146E-02  0.146E-02
   5.046  0.418E-01  0.390E-01  0.143E-02  0.143E-02
   5.056  0.444E-01  0.416E-01  0.140E-02  0.140E-02
   5.066  0.470E-01  0.443E-01  0.137E-02  0.137E-02
   5.076  0.498E-01  0.472E-01  0.133E-02  0.133E-02
   5.086  0.527E-01  0.501E-01  0.130E-02  0.130E-02
   5.096  0.555E-01  0.530E-01  0.126E-02  0.126E-02
   5.106  0.583E-01  0.558E-01  0.122E-02  0.122E-02
   5.116  0.608E-01  0.585E-01  0.119E-02  0.119E-02
   5.126  0.632E-01  0.609E-01  0.116E-02  0.116E-02
   5.136  0.654E-01  0.631E-01  0.113E-02  0.113E-02
   5.146  0.673E-01  0.651E-01  0.110E-02  0.110E-02
   5.156  0.689E-01  0.667E-01  0.108E-02  0.108E-02
   5.166  0.702E-01  0.681E-01  0.106E-02  0.106E-02
   5.176  0.713E-01  0.692E-01  0.104E-02  0.104E-02
   5.186  0.720E-01  0.700E-01  0.102E-02  0.102E-02
   5.196  0.726E-01  0.706E-01  0.100E-02  0.100E-02
   5.206  0.729E-01  0.709E-01  0.985E-03  0.985E-03
   5.216  0.731E-01  0.711E-01  0.968E-03  0.968E-03
   5.226  0.731E-01  0.712E-01  0.949E-03  0.949E-03
   5.236  0.730E-01  0.711E-01  0.930E-03  0.930E-03
   5.246  0.729E-01  0.710E-01  0.910E-03  0.910E-03
   5.256  0.727E-01  0.709E-01  0.889E-03  0.889E-03
   5.266  0.725E-01  0.708E-01  0.868E-03  0.868E-03
   5.276  0.724E-01  0.707E-01  0.845E-03  0.845E-03
   5.286  0.723E-01  0.707E-01  0.822E-03  0.822E-03
   5.296  0.724E-01  0.708E-01  0.800E-03  0.800E-03
   5.306  0.725E-01  0.709E-01  0.777E-03  0.777E-03
   5.316  0.727E-01  0.711E-01  0.756E-03  0.756E-03
   5.326  0.730E-01  0.715E-01  0.736E-03  0.736E-03
   5.336  0.734E-01  0.719E-01  0.718E-03  0.718E-03
   5.346  0.739E-01  0.725E-01  0.701E-03  0.701E-03
   5.356  0.745E-01  0.731E-01  0.687E-03  0.687E-03
   5.366  0.752E-01  0.739E-01  0.676E-03  0.676E-03
   5.376  0.760E-01  0.747E-01  0.667E-03  0.667E-03
   5.386  0.769E-01  0.755E-01  0.662E-03  0.662E-03
   5.396  0.778E-01  0.764E-01  0.659E-03  0.659E-03
   5.406  0.787E-01  0.774E-01  0.660E-03  0.660E-03
   5.416  0.796E-01  0.783E-01  0.664E-03  0.664E-03
   5.426  0.805E-01  0.791E-01  0.672E-03  0.672E-03
   5.436  0.812E-01  0.799E-01  0.683E-03  0.683E-03
   5.446  0.819E-01  0.805E-01  0.698E-03  0.698E-03
   5.456  0.824E-01  0.809E-01  0.716E-03  0.716E-03
   5.466  0.826E-01  0.812E-01  0.738E-03  0.738E-03
   5.476  0.827E-01  0.811E-01  0.763E-03  0.763E-03
   5.486  0.824E-01  0.808E-01  0.792E-03  0.792E-03
   5.496  0.817E-01  0.801E-01  0.823E-03  0.823E-03
   5.506  0.808E-01  0.791E-01  0.856E-03  0.856E-03
   5.516  0.794E-01  0.776E-01  0.891E-03  0.891E-03
   5.526  0.777E-01  0.758E-01  0.926E-03  0.926E-03
   5.536  0.756E-01  0.737E-01  0.962E-03  0.962E-03
   5.546  0.731E-01  0.711E-01  0.997E-03  0.997E-03
   5.556  0.703E-01  0.682E-01  0.103E-02  0.103E-02
   5.566  0.671E-01  0.650E-01  0.106E-02  0.106E-02
   5.576  0.637E-01  0.616E-01  0.109E-02  0.109E-02
   5.586  0.601E-01  0.579E-01  0.111E-02  0.111E-02
   5.596  0.563E-01  0.541E-01  0.113E-02  0.113E-02
   5.606  0.524E-01  0.501E-01  0.114E-02  0.114E-02
   5.616  0.484E-01  0.462E-01  0.114E-02  0.114E-02
   5.626  0.445E-01  0.422E-01  0.114E-02  0.114E-02
   5.636  0.406E-01  0.383E-01  0.114E-02  0.114E-02
   5.646  0.368E-01  0.345E-01  0.112E-02  0.112E-02
   5.656  0.331E-01  0.309E-01  0.110E-02  0.110E-02
   5.666  0.296E-01  0.274E-01  0.108E-02  0.108E-02
   5.676  0.263E-01  0.242E-01  0.105E-02  0.105E-02
   5.686  0.232E-01  0.212E-01  0.102E-02  0.102E-02
   5.696  0.204E-01  0.184E-01  0.984E-03  0.984E-03
   5.706  0.178E-01  0.160E-01  0.947E-03  0.947E-03
   5.716  0.155E-01  0.137E-01  0.908E-03  0.908E-03
   5.726  0.135E-01  0.117E-01  0.869E-03  0.869E-03
   5.736  0.116E-01  0.997E-02  0.831E-03  0.831E-03
   5.746  0.100E-01  0.844E-02  0.794E-03  0.794E-03
   5.756  0.864E-02  0.712E-02  0.759E-03  0.759E-03
   5.766  0.745E-02  0.599E-02  0.727E-03  0.727E-03
   5.776  0.643E-02  0.503E-02  0.697E-03  0.697E-03
   5.786  0.557E-02  0.423E-02  0.671E-03  0.671E-03
   5.796  0.485E-02  0.355E-02  0.648E-03  0.648E-03
   5.806  0.425E-02  0.299E-02  0.629E-03  0.629E-03
   5.816  0.376E-02  0.254E-02  0.613E-03  0.613E-03
   5.826  0.336E-02  0.216E-02  0.600E-03  0.600E-03
   5.836  0.304E-02  0.186E-02  0.589E-03  0.589E-03
   5.846  0.278E-02  0.161E-02  0.581E-03  0.581E-03
   5.856  0.257E-02  0.142E-02  0.574E-03  0.574E-03
   5.866  0.241E-02  0.127E-02  0.569E-03  0.569E-03
   5.876  0.228E-02  0.115E-02  0.563E-03  0.563E-03
   5.886  0.218E-02  0.106E-02  0.558E-03  0.558E-03
   5.896  0.210E-02  0.994E-03  0.553E-03  0.553E-03
   5.906  0.204E-02  0.945E-03  0.546E-03  0.546E-03
   5.916  0.199E-02  0.911E-03  0.539E-03  0.539E-03
   5.926  0.195E-02  0.888E-03  0.530E-03  0.530E-03
   5.936  0.192E-02  0.875E-03  0.521E-03  0.521E-03
   5.946  0.189E-02  0.867E-03  0.510E-03  0.510E-03
   5.956  0.186E-02  0.865E-03  0.499E-03  0.499E-03
   5.966  0.184E-02  0.864E-03  0.487E-03  0.487E-03
   5.976  0.182E-02  0.865E-03  0.476E-03  0.476E-03
   5.986  0.180E-02  0.865E-03  0.465E-03  0.465E-03
   5.996  0.177E-02  0.865E-03  0.455E-03  0.455E-03
   6.006  0.175E-02  0.862E-03  0.447E-03  0.447E-03
   6.016  0.174E-02  0.856E-03  0.440E-03  0.440E-03
   6.026  0.172E-02  0.848E-03  0.436E-03  0.436E-03
   6.036  0.171E-02  0.836E-03  0.435E-03  0.435E-03
   6.046  0.169E-02  0.822E-03  0.436E-03  0.436E-03
   6.056  0.169E-02  0.804E-03  0.441E-03  0.441E-03
   6.066  0.168E-02  0.785E-03  0.448E-03  0.448E-03
   6.076  0.168E-02  0.764E-03  0.458E-03  0.458E-03
   6.086  0.168E-02  0.742E-03  0.471E-03  0.471E-03
   6.096  0.169E-02  0.719E-03  0.487E-03  0.487E-03
   6.106  0.170E-02  0.696E-03  0.504E-03  0.504E-03
   6.116  0.172E-02  0.673E-03  0.523E-03  0.523E-03
   6.126  0.174E-02  0.651E-03  0.544E-03  0.544E-03
   6.136  0.176E-02  0.630E-03  0.565E-03  0.565E-03
   6.146  0.178E-02  0.611E-03  0.586E-03  0.586E-03
   6.156  0.181E-02  0.593E-03  0.607E-03  0.607E-03
   6.166  0.183E-02  0.578E-03  0.627E-03  0.627E-03
   6.176  0.186E-02  0.564E-03  0.647E-03  0.647E-03
   6.186  0.188E-02  0.552E-03  0.664E-03  0.664E-03
   6.196  0.190E-02  0.542E-03  0.680E-03  0.680E-03
   6.206  0.192E-02  0.534E-03  0.693E-03  0.693E-03
   6.216  0.194E-02  0.529E-03  0.704E-03  0.704E-03
   6.226  0.195E-02  0.526E-03  0.713E-03  0.713E-03
   6.236  0.196E-02  0.526E-03  0.719E-03  0.719E-03
   6.246  0.197E-02  0.528E-03  0.721E-03  0.721E-03
   6.256  0.198E-02  0.532E-03  0.722E-03  0.722E-03
   6.266  0.198E-02  0.539E-03  0.719E-03  0.719E-03
   6.276  0.198E-02  0.548E-03  0.714E-03  0.714E-03
   6.286  0.197E-02  0.559E-03  0.707E-03  0.707E-03
   6.296  0.197E-02  0.573E-03  0.697E-03  0.697E-03
   6.306  0.196E-02  0.587E-03  0.686E-03  0.686E-03
   6.316  0.195E-02  0.603E-03  0.673E-03  0.673E-03
   6.326  0.194E-02  0.620E-03  0.658E-03  0.658E-03
   6.336  0.192E-02  0.637E-03  0.642E-03  0.642E-03
   6.346  0.190E-02  0.653E-03  0.625E-03  0.625E-03
   6.356  0.188E-02  0.668E-03  0.607E-03  0.607E-03
   6.366  0.186E-02  0.682E-03  0.589E-03  0.589E-03
   6.376  0.183E-02  0.694E-03  0.570E-03  0.570E-03
   6.386  0.180E-02  0.703E-03  0.551E-03  0.551E-03
   6.396  0.177E-02  0.708E-03  0.531E-03  0.531E-03
   6.406  0.174E-02  0.711E-03  0.512E-03  0.512E-03
   6.416  0.170E-02  0.710E-03  0.493E-03  0.493E-03
   6.426  0.165E-02  0.705E-03  0.474E-03  0.474E-03
   6.436  0.161E-02  0.696E-03  0.455E-03  0.455E-03
   6.446  0.156E-02  0.684E-03  0.437E-03  0.437E-03
   6.456  0.151E-02  0.668E-03  0.419E-03  0.419E-03
   6.466  0.145E-02  0.650E-03  0.402E-03  0.402E-03
   6.476  0.140E-02  0.629E-03  0.385E-03  0.385E-03
   6.486  0.135E-02  0.607E-03  0.369E-03  0.369E-03
   6.496  0.129E-02  0.583E-03  0.355E-03  0.355E-03
   6.506  0.124E-02  0.558E-03  0.341E-03  0.341E-03
   6.516  0.119E-02  0.534E-03  0.328E-03  0.328E-03
   6.526  0.114E-02  0.511E-03  0.317E-03  0.317E-03
   6.536  0.110E-02  0.489E-03  0.306E-03  0.306E-03
   6.546  0.106E-02  0.470E-03  0.297E-03  0.297E-03
   6.556  0.103E-02  0.453E-03  0.288E-03  0.288E-03
   6.566  0.999E-03  0.438E-03  0.281E-03  0.281E-03
   6.576  0.974E-03  0.427E-03  0.273E-03  0.273E-03
   6.586  0.953E-03  0.419E-03  0.267E-03  0.267E-03
   6.596  0.936E-03  0.414E-03  0.261E-03  0.261E-03
   6.606  0.922E-03  0.412E-03  0.255E-03  0.255E-03
   6.616  0.912E-03  0.413E-03  0.249E-03  0.249E-03
   6.626  0.904E-03  0.416E-03  0.244E-03  0.244E-03
   6.636  0.899E-03  0.421E-03  0.239E-03  0.239E-03
   6.646  0.895E-03  0.428E-03  0.234E-03  0.234E-03
   6.656  0.893E-03  0.435E-03  0.229E-03  0.229E-03
   6.666  0.892E-03  0.442E-03  0.225E-03  0.225E-03
   6.676  0.893E-03  0.449E-03  0.222E-03  0.222E-03
   6.686  0.894E-03  0.456E-03  0.219E-03  0.219E-03
   6.696  0.898E-03  0.461E-03  0.218E-03  0.218E-03
   6.706  0.903E-03  0.465E-03  0.219E-03  0.219E-03
   6.716  0.910E-03  0.467E-03  0.221E-03  0.221E-03
   6.726  0.920E-03  0.468E-03  0.226E-03  0.226E-03
   6.736  0.933E-03  0.467E-03  0.233E-03  0.233E-03
   6.746  0.950E-03  0.465E-03  0.243E-03  0.243E-03
   6.756  0.971E-03  0.461E-03  0.255E-03  0.255E-03
   6.766  0.995E-03  0.456E-03  0.270E-03  0.270E-03
   6.776  0.102E-02  0.450E-03  0.287E-03  0.287E-03
   6.786  0.106E-02  0.444E-03  0.307E-03  0.307E-03
   6.796  0.109E-02  0.437E-03  0.329E-03  0.329E-03
   6.806  0.114E-02  0.430E-03  0.353E-03  0.353E-03
   6.816  0.118E-02  0.423E-03  0.378E-03  0.378E-03
   6.826  0.123E-02  0.417E-03  0.404E-03  0.404E-03
   6.836  0.127E-02  0.411E-03  0.431E-03  0.431E-03
   6.846  0.132E-02  0.406E-03  0.458E-03  0.458E-03
   6.856  0.137E-02  0.401E-03  0.485E-03  0.485E-03
   6.866  0.142E-02  0.397E-03  0.512E-03  0.512E-03
   6.876  0.147E-02  0.393E-03  0.537E-03  0.537E-03
   6.886  0.151E-02  0.390E-03  0.562E-03  0.562E-03
   6.896  0.156E-02  0.387E-03  0.586E-03  0.586E-03
   6.906  0.160E-02  0.384E-03  0.609E-03  0.609E-03
   6.916  0.164E-02  0.382E-03  0.631E-03  0.631E-03
   6.926  0.169E-02  0.380E-03  0.655E-03  0.655E-03
   6.936  0.174E-02  0.378E-03  0.679E-03  0.679E-03
   6.946  0.179E-02  0.376E-03  0.706E-03  0.706E-03
   6.956  0.185E-02  0.375E-03  0.738E-03  0.738E-03
   6.966  0.192E-02  0.374E-03  0.775E-03  0.775E-03
   6.976  0.201E-02  0.374E-03  0.820E-03  0.820E-03
   6.986  0.213E-02  0.375E-03  0.877E-03  0.877E-03
   6.996  0.227E-02  0.376E-03  0.948E-03  0.948E-03
   7.006  0.245E-02  0.379E-03  0.104E-02  0.104E-02
   7.016  0.267E-02  0.383E-03  0.115E-02  0.115E-02
   7.026  0.295E-02  0.387E-03  0.128E-02  0.128E-02
   7.036  0.329E-02  0.394E-03  0.145E-02  0.145E-02
   7.046  0.369E-02  0.401E-03  0.165E-02  0.165E-02
   7.056  0.418E-02  0.408E-03  0.188E-02  0.188E-02
   7.066  0.475E-02  0.417E-03  0.216E-02  0.216E-02
   7.076  0.541E-02  0.426E-03  0.249E-02  0.249E-02
   7.086  0.617E-02  0.435E-03  0.287E-02  0.287E-02
   7.096  0.704E-02  0.444E-03  0.330E-02  0.330E-02
   7.106  0.802E-02  0.452E-03  0.378E-02  0.378E-02
   7.116  0.910E-02  0.459E-03  0.432E-02  0.432E-02
   7.126  0.103E-01  0.465E-03  0.491E-02  0.491E-02
   7.136  0.116E-01  0.469E-03  0.554E-02  0.554E-02
   7.146  0.129E-01  0.471E-03  0.623E-02  0.623E-02
   7.156  0.144E-01  0.471E-03  0.695E-02  0.695E-02
   7.166  0.159E-01  0.468E-03  0.770E-02  0.770E-02
   7.176  0.174E-01  0.463E-03  0.847E-02  0.847E-02
   7.186  0.190E-01  0.456E-03  0.926E-02  0.926E-02
   7.196  0.205E-01  0.446E-03  0.100E-01  0.100E-01
   7.206  0.221E-01  0.433E-03  0.108E-01  0.108E-01
   7.216  0.236E-01  0.419E-03  0.116E-01  0.116E-01
   7.226  0.250E-01  0.404E-03  0.123E-01  0.123E-01
   7.236  0.263E-01  0.387E-03  0.130E-01  0.130E-01
   7.246  0.275E-01  0.370E-03  0.136E-01  0.136E-01
   7.256  0.286E-01  0.353E-03  0.141E-01  0.141E-01
   7.266  0.295E-01  0.336E-03  0.146E-01  0.146E-01
   7.276  0.303E-01  0.320E-03  0.150E-01  0.150E-01
   7.286  0.309E-01  0.305E-03  0.153E-01  0.153E-01
   7.296  0.314E-01  0.292E-03  0.155E-01  0.155E-01
   7.306  0.316E-01  0.281E-03  0.157E-01  0.157E-01
   7.316  0.318E-01  0.272E-03  0.158E-01  0.158E-01
   7.326  0.318E-01  0.266E-03  0.158E-01  0.158E-01
   7.336  0.316E-01  0.262E-03  0.157E-01  0.157E-01
   7.346  0.314E-01  0.260E-03  0.156E-01  0.156E-01
   7.356  0.310E-01  0.260E-03  0.154E-01  0.154E-01
   7.366  0.306E-01  0.262E-03  0.152E-01  0.152E-01
   7.376  0.301E-01  0.266E-03  0.149E-01  0.149E-01
   7.386  0.296E-01  0.271E-03  0.147E-01  0.147E-01
   7.396  0.292E-01  0.277E-03  0.144E-01  0.144E-01
   7.406  0.287E-01  0.284E-03  0.142E-01  0.142E-01
   7.416  0.283E-01  0.291E-03  0.140E-01  0.140E-01
   7.426  0.279E-01  0.298E-03  0.138E-01  0.138E-01
   7.436  0.276E-01  0.306E-03  0.136E-01  0.136E-01
   7.446  0.274E-01  0.312E-03  0.135E-01  0.135E-01
   7.456  0.273E-01  0.319E-03  0.135E-01  0.135E-01
   7.466  0.272E-01  0.325E-03  0.134E-01  0.134E-01
   7.476  0.273E-01  0.330E-03  0.135E-01  0.135E-01
   7.486  0.274E-01  0.334E-03  0.135E-01  0.135E-01
   7.496  0.276E-01  0.338E-03  0.136E-01  0.136E-01
   7.506  0.279E-01  0.341E-03  0.138E-01  0.138E-01
   7.516  0.282E-01  0.344E-03  0.139E-01  0.139E-01
   7.526  0.285E-01  0.346E-03  0.141E-01  0.141E-01
   7.536  0.287E-01  0.347E-03  0.142E-01  0.142E-01
   7.546  0.290E-01  0.348E-03  0.143E-01  0.143E-01
   7.556  0.292E-01  0.349E-03  0.144E-01  0.144E-01
   7.566  0.293E-01  0.350E-03  0.145E-01  0.145E-01
   7.576  0.293E-01  0.350E-03  0.145E-01  0.145E-01
   7.586  0.292E-01  0.350E-03  0.144E-01  0.144E-01
   7.596  0.289E-01  0.350E-03  0.143E-01  0.143E-01
   7.606  0.286E-01  0.350E-03  0.141E-01  0.141E-01
   7.616  0.280E-01  0.349E-03  0.138E-01  0.138E-01
   7.626  0.274E-01  0.348E-03  0.135E-01  0.135E-01
   7.636  0.266E-01  0.347E-03  0.131E-01  0.131E-01
   7.646  0.256E-01  0.344E-03  0.127E-01  0.127E-01
   7.656  0.246E-01  0.342E-03  0.121E-01  0.121E-01
   7.666  0.235E-01  0.338E-03  0.116E-01  0.116E-01
   7.676  0.223E-01  0.334E-03  0.110E-01  0.110E-01
   7.686  0.210E-01  0.330E-03  0.103E-01  0.103E-01
   7.696  0.197E-01  0.324E-03  0.968E-02  0.968E-02
   7.706  0.184E-01  0.319E-03  0.902E-02  0.902E-02
   7.716  0.170E-01  0.313E-03  0.836E-02  0.836E-02
   7.726  0.158E-01  0.307E-03  0.773E-02  0.773E-02
   7.736  0.145E-01  0.301E-03  0.712E-02  0.712E-02
   7.746  0.134E-01  0.295E-03  0.655E-02  0.655E-02
   7.756  0.124E-01  0.290E-03  0.604E-02  0.604E-02
   7.766  0.114E-01  0.286E-03  0.558E-02  0.558E-02
   7.776  0.106E-01  0.282E-03  0.518E-02  0.518E-02
   7.786  0.100E-01  0.280E-03  0.486E-02  0.486E-02
   7.796  0.953E-02  0.280E-03  0.463E-02  0.463E-02
   7.806  0.922E-02  0.281E-03  0.447E-02  0.447E-02
   7.816  0.909E-02  0.283E-03  0.440E-02  0.440E-02
   7.826  0.914E-02  0.287E-03  0.442E-02  0.442E-02
   7.836  0.936E-02  0.293E-03  0.453E-02  0.453E-02
   7.846  0.975E-02  0.300E-03  0.472E-02  0.472E-02
   7.856  0.103E-01  0.308E-03  0.500E-02  0.500E-02
   7.866  0.110E-01  0.317E-03  0.534E-02  0.534E-02
   7.876  0.118E-01  0.327E-03  0.575E-02  0.575E-02
   7.886  0.128E-01  0.337E-03  0.622E-02  0.622E-02
   7.896  0.138E-01  0.347E-03  0.673E-02  0.673E-02
   7.906  0.149E-01  0.356E-03  0.727E-02  0.727E-02
   7.916  0.160E-01  0.364E-03  0.782E-02  0.782E-02
   7.926  0.171E-01  0.371E-03  0.838E-02  0.838E-02
   7.936  0.182E-01  0.375E-03  0.893E-02  0.893E-02
   7.946  0.193E-01  0.378E-03  0.945E-02  0.945E-02
   7.956  0.203E-01  0.378E-03  0.994E-02  0.994E-02
   7.966  0.211E-01  0.376E-03  0.104E-01  0.104E-01
   7.976  0.218E-01  0.371E-03  0.107E-01  0.107E-01
   7.986  0.224E-01  0.364E-03  0.110E-01  0.110E-01
   7.996  0.229E-01  0.355E-03  0.113E-01  0.113E-01
   8.006  0.231E-01  0.344E-03  0.114E-01  0.114E-01
   8.016  0.232E-01  0.332E-03  0.114E-01  0.114E-01
   8.026  0.231E-01  0.318E-03  0.114E-01  0.114E-01
   8.036  0.228E-01  0.304E-03  0.113E-01  0.113E-01
   8.046  0.224E-01  0.290E-03  0.110E-01  0.110E-01
   8.056  0.218E-01  0.276E-03  0.108E-01  0.108E-01
   8.066  0.211E-01  0.263E-03  0.104E-01  0.104E-01
   8.076  0.202E-01  0.251E-03  0.998E-02  0.998E-02
   8.086  0.192E-01  0.241E-03  0.950E-02  0.950E-02
   8.096  0.182E-01  0.232E-03  0.898E-02  0.898E-02
   8.106  0.171E-01  0.225E-03  0.843E-02  0.843E-02
   8.116  0.159E-01  0.220E-03  0.786E-02  0.786E-02
   8.126  0.148E-01  0.218E-03  0.727E-02  0.727E-02
   8.136  0.136E-01  0.217E-03  0.668E-02  0.668E-02
   8.146  0.124E-01  0.218E-03  0.609E-02  0.609E-02
   8.156  0.113E-01  0.221E-03  0.552E-02  0.552E-02
   8.166  0.102E-01  0.225E-03  0.497E-02  0.497E-02
   8.176  0.913E-02  0.231E-03  0.445E-02  0.445E-02
   8.186  0.816E-02  0.237E-03  0.396E-02  0.396E-02
   8.196  0.727E-02  0.245E-03  0.351E-02  0.351E-02
   8.206  0.646E-02  0.252E-03  0.310E-02  0.310E-02
   8.216  0.573E-02  0.261E-03  0.273E-02  0.273E-02
   8.226  0.509E-02  0.269E-03  0.241E-02  0.241E-02
   8.236  0.454E-02  0.278E-03  0.213E-02  0.213E-02
   8.246  0.408E-02  0.286E-03  0.190E-02  0.190E-02
   8.256  0.371E-02  0.294E-03  0.171E-02  0.171E-02
   8.266  0.343E-02  0.303E-03  0.156E-02  0.156E-02
   8.276  0.323E-02  0.310E-03  0.146E-02  0.146E-02
   8.286  0.311E-02  0.318E-03  0.140E-02  0.140E-02
   8.296  0.308E-02  0.325E-03  0.138E-02  0.138E-02
   8.306  0.313E-02  0.331E-03  0.140E-02  0.140E-02
   8.316  0.327E-02  0.337E-03  0.147E-02  0.147E-02
   8.326  0.348E-02  0.343E-03  0.157E-02  0.157E-02
   8.336  0.378E-02  0.348E-03  0.172E-02  0.172E-02
   8.346  0.416E-02  0.352E-03  0.191E-02  0.191E-02
   8.356  0.463E-02  0.356E-03  0.214E-02  0.214E-02
   8.366  0.518E-02  0.360E-03  0.241E-02  0.241E-02
   8.376  0.581E-02  0.363E-03  0.273E-02  0.273E-02
   8.386  0.653E-02  0.365E-03  0.308E-02  0.308E-02
   8.396  0.733E-02  0.367E-03  0.348E-02  0.348E-02
   8.406  0.820E-02  0.368E-03  0.392E-02  0.392E-02
   8.416  0.914E-02  0.369E-03  0.439E-02  0.439E-02
   8.426  0.101E-01  0.369E-03  0.488E-02  0.488E-02
   8.436  0.112E-01  0.369E-03  0.541E-02  0.541E-02
   8.446  0.123E-01  0.368E-03  0.595E-02  0.595E-02
   8.456  0.134E-01  0.366E-03  0.649E-02  0.649E-02
   8.466  0.144E-01  0.364E-03  0.704E-02  0.704E-02
   8.476  0.155E-01  0.360E-03  0.757E-02  0.757E-02
   8.486  0.165E-01  0.356E-03  0.809E-02  0.809E-02
   8.496  0.175E-01  0.350E-03  0.856E-02  0.856E-02
   8.506  0.183E-01  0.344E-03  0.900E-02  0.900E-02
   8.516  0.191E-01  0.336E-03  0.938E-02  0.938E-02
   8.526  0.197E-01  0.328E-03  0.969E-02  0.969E-02
   8.536  0.202E-01  0.318E-03  0.994E-02  0.994E-02
   8.546  0.205E-01  0.309E-03  0.101E-01  0.101E-01
   8.556  0.207E-01  0.299E-03  0.102E-01  0.102E-01
   8.566  0.207E-01  0.289E-03  0.102E-01  0.102E-01
   8.576  0.205E-01  0.279E-03  0.101E-01  0.101E-01
   8.586  0.201E-01  0.270E-03  0.994E-02  0.994E-02
   8.596  0.196E-01  0.262E-03  0.969E-02  0.969E-02
   8.606  0.190E-01  0.256E-03  0.937E-02  0.937E-02
   8.616  0.182E-01  0.251E-03  0.898E-02  0.898E-02
   8.626  0.173E-01  0.249E-03  0.854E-02  0.854E-02
   8.636  0.164E-01  0.249E-03  0.805E-02  0.805E-02
   8.646  0.153E-01  0.251E-03  0.753E-02  0.753E-02
   8.656  0.142E-01  0.255E-03  0.699E-02  0.699E-02
   8.666  0.131E-01  0.262E-03  0.643E-02  0.643E-02
   8.676  0.120E-01  0.271E-03  0.587E-02  0.587E-02
   8.686  0.109E-01  0.283E-03  0.531E-02  0.531E-02
   8.696  0.985E-02  0.295E-03  0.478E-02  0.478E-02
   8.706  0.884E-02  0.309E-03  0.426E-02  0.426E-02
   8.716  0.789E-02  0.324E-03  0.378E-02  0.378E-02
   8.726  0.701E-02  0.339E-03  0.333E-02  0.333E-02
   8.736  0.620E-02  0.353E-03  0.293E-02  0.293E-02
   8.746  0.548E-02  0.367E-03  0.256E-02  0.256E-02
   8.756  0.484E-02  0.380E-03  0.223E-02  0.223E-02
   8.766  0.428E-02  0.391E-03  0.194E-02  0.194E-02
   8.776  0.379E-02  0.400E-03  0.169E-02  0.169E-02
   8.786  0.337E-02  0.407E-03  0.148E-02  0.148E-02
   8.796  0.302E-02  0.411E-03  0.130E-02  0.130E-02
   8.806  0.273E-02  0.414E-03  0.116E-02  0.116E-02
   8.816  0.248E-02  0.414E-03  0.104E-02  0.104E-02
   8.826  0.229E-02  0.412E-03  0.938E-03  0.938E-03
   8.836  0.213E-02  0.408E-03  0.860E-03  0.860E-03
   8.846  0.200E-02  0.403E-03  0.799E-03  0.799E-03
   8.856  0.190E-02  0.396E-03  0.752E-03  0.752E-03
   8.866  0.182E-02  0.389E-03  0.717E-03  0.717E-03
   8.876  0.177E-02  0.382E-03  0.692E-03  0.692E-03
   8.886  0.173E-02  0.375E-03  0.676E-03  0.676E-03
   8.896  0.171E-02  0.368E-03  0.669E-03  0.669E-03
   8.906  0.170E-02  0.363E-03  0.669E-03  0.669E-03
   8.916  0.172E-02  0.358E-03  0.679E-03  0.679E-03
   8.926  0.175E-02  0.355E-03  0.698E-03  0.698E-03
   8.936  0.181E-02  0.354E-03  0.729E-03  0.729E-03
   8.946  0.190E-02  0.354E-03  0.773E-03  0.773E-03
   8.956  0.202E-02  0.356E-03  0.833E-03  0.833E-03
   8.966  0.218E-02  0.359E-03  0.912E-03  0.912E-03
   8.976  0.239E-02  0.364E-03  0.101E-02  0.101E-02
   8.986  0.264E-02  0.371E-03  0.114E-02  0.114E-02
   8.996  0.296E-02  0.378E-03  0.129E-02  0.129E-02
   9.006  0.333E-02  0.386E-03  0.147E-02  0.147E-02
   9.016  0.378E-02  0.395E-03  0.169E-02  0.169E-02
   9.026  0.429E-02  0.405E-03  0.194E-02  0.194E-02
   9.036  0.488E-02  0.414E-03  0.223E-02  0.223E-02
   9.046  0.555E-02  0.424E-03  0.256E-02  0.256E-02
   9.056  0.629E-02  0.434E-03  0.293E-02  0.293E-02
   9.066  0.711E-02  0.445E-03  0.333E-02  0.333E-02
   9.076  0.799E-02  0.455E-03  0.377E-02  0.377E-02
   9.086  0.892E-02  0.466E-03  0.423E-02  0.423E-02
   9.096  0.990E-02  0.477E-03  0.471E-02  0.471E-02
   9.106  0.109E-01  0.489E-03  0.521E-02  0.521E-02
   9.116  0.119E-01  0.502E-03  0.572E-02  0.572E-02
   9.126  0.130E-01  0.517E-03  0.622E-02  0.622E-02
   9.136  0.140E-01  0.533E-03  0.671E-02  0.671E-02
   9.146  0.149E-01  0.550E-03  0.717E-02  0.717E-02
   9.156  0.158E-01  0.570E-03  0.760E-02  0.760E-02
   9.166  0.166E-01  0.591E-03  0.798E-02  0.798E-02
   9.176  0.172E-01  0.614E-03  0.831E-02  0.831E-02
   9.186  0.178E-01  0.639E-03  0.856E-02  0.856E-02
   9.196  0.182E-01  0.666E-03  0.875E-02  0.875E-02
   9.206  0.184E-01  0.693E-03  0.885E-02  0.885E-02
   9.216  0.185E-01  0.722E-03  0.888E-02  0.888E-02
   9.226  0.184E-01  0.752E-03  0.882E-02  0.882E-02
   9.236  0.182E-01  0.781E-03  0.869E-02  0.869E-02
   9.246  0.178E-01  0.811E-03  0.847E-02  0.847E-02
   9.256  0.172E-01  0.839E-03  0.819E-02  0.819E-02
   9.266  0.165E-01  0.867E-03  0.784E-02  0.784E-02
   9.276  0.158E-01  0.893E-03  0.744E-02  0.744E-02
   9.286  0.149E-01  0.917E-03  0.700E-02  0.700E-02
   9.296  0.140E-01  0.939E-03  0.652E-02  0.652E-02
   9.306  0.130E-01  0.958E-03  0.602E-02  0.602E-02
   9.316  0.120E-01  0.976E-03  0.552E-02  0.552E-02
   9.326  0.110E-01  0.991E-03  0.501E-02  0.501E-02
   9.336  0.100E-01  0.100E-02  0.451E-02  0.451E-02
   9.346  0.907E-02  0.101E-02  0.403E-02  0.403E-02
   9.356  0.817E-02  0.102E-02  0.357E-02  0.357E-02
   9.366  0.732E-02  0.103E-02  0.315E-02  0.315E-02
   9.376  0.654E-02  0.103E-02  0.276E-02  0.276E-02
   9.386  0.583E-02  0.103E-02  0.240E-02  0.240E-02
   9.396  0.519E-02  0.103E-02  0.208E-02  0.208E-02
   9.406  0.462E-02  0.103E-02  0.180E-02  0.180E-02
   9.416  0.412E-02  0.102E-02  0.155E-02  0.155E-02
   9.426  0.368E-02  0.102E-02  0.133E-02  0.133E-02
   9.436  0.331E-02  0.101E-02  0.115E-02  0.115E-02
   9.446  0.299E-02  0.998E-03  0.997E-03  0.997E-03
   9.456  0.272E-02  0.989E-03  0.867E-03  0.867E-03
   9.466  0.250E-02  0.979E-03  0.759E-03  0.759E-03
   9.476  0.231E-02  0.969E-03  0.669E-03  0.669E-03
   9.486  0.215E-02  0.960E-03  0.594E-03  0.594E-03
   9.496  0.202E-02  0.952E-03  0.533E-03  0.533E-03
   9.506  0.191E-02  0.946E-03  0.482E-03  0.482E-03
   9.516  0.182E-02  0.943E-03  0.439E-03  0.439E-03
   9.526  0.175E-02  0.943E-03  0.403E-03  0.403E-03
   9.536  0.169E-02  0.946E-03  0.373E-03  0.373E-03
   9.546  0.165E-02  0.954E-03  0.348E-03  0.348E-03
   9.556  0.162E-02  0.967E-03  0.327E-03  0.327E-03
   9.566  0.160E-02  0.984E-03  0.311E-03  0.311E-03
   9.576  0.160E-02  0.101E-02  0.298E-03  0.298E-03
   9.586  0.161E-02  0.103E-02  0.289E-03  0.289E-03
   9.596  0.163E-02  0.106E-02  0.284E-03  0.284E-03
   9.606  0.166E-02  0.109E-02  0.283E-03  0.283E-03
   9.616  0.170E-02  0.113E-02  0.288E-03  0.288E-03
   9.626  0.176E-02  0.116E-02  0.298E-03  0.298E-03
   9.636  0.183E-02  0.120E-02  0.315E-03  0.315E-03
   9.646  0.191E-02  0.123E-02  0.339E-03  0.339E-03
   9.656  0.200E-02  0.126E-02  0.370E-03  0.370E-03
   9.666  0.211E-02  0.129E-02  0.411E-03  0.411E-03
   9.676  0.224E-02  0.131E-02  0.463E-03  0.463E-03
   9.686  0.238E-02  0.132E-02  0.527E-03  0.527E-03
   9.696  0.254E-02  0.133E-02  0.604E-03  0.604E-03
   9.706  0.273E-02  0.133E-02  0.697E-03  0.697E-03
   9.716  0.294E-02  0.132E-02  0.808E-03  0.808E-03
   9.726  0.318E-02  0.131E-02  0.939E-03  0.939E-03
   9.736  0.347E-02  0.128E-02  0.109E-02  0.109E-02
   9.746  0.379E-02  0.125E-02  0.127E-02  0.127E-02
   9.756  0.417E-02  0.122E-02  0.147E-02  0.147E-02
   9.766  0.459E-02  0.118E-02  0.171E-02  0.171E-02
   9.776  0.507E-02  0.114E-02  0.197E-02  0.197E-02
   9.786  0.561E-02  0.109E-02  0.226E-02  0.226E-02
   9.796  0.620E-02  0.105E-02  0.258E-02  0.258E-02
   9.806  0.685E-02  0.101E-02  0.292E-02  0.292E-02
   9.816  0.756E-02  0.973E-03  0.329E-02  0.329E-02
   9.826  0.831E-02  0.942E-03  0.368E-02  0.368E-02
   9.836  0.909E-02  0.916E-03  0.409E-02  0.409E-02
   9.846  0.990E-02  0.897E-03  0.450E-02  0.450E-02
   9.856  0.107E-01  0.886E-03  0.491E-02  0.491E-02
   9.866  0.115E-01  0.883E-03  0.532E-02  0.532E-02
   9.876  0.123E-01  0.888E-03  0.571E-02  0.571E-02
   9.886  0.130E-01  0.901E-03  0.607E-02  0.607E-02
   9.896  0.137E-01  0.920E-03  0.639E-02  0.639E-02
   9.906  0.143E-01  0.947E-03  0.667E-02  0.667E-02
   9.916  0.148E-01  0.978E-03  0.689E-02  0.689E-02
   9.926  0.151E-01  0.101E-02  0.706E-02  0.706E-02
   9.936  0.154E-01  0.105E-02  0.715E-02  0.715E-02
   9.946  0.155E-01  0.109E-02  0.718E-02  0.718E-02
   9.956  0.154E-01  0.113E-02  0.714E-02  0.714E-02
   9.966  0.152E-01  0.117E-02  0.703E-02  0.703E-02
   9.976  0.149E-01  0.120E-02  0.685E-02  0.685E-02
   9.986  0.145E-01  0.123E-02  0.662E-02  0.662E-02
   9.996  0.139E-01  0.125E-02  0.632E-02  0.632E-02
  10.006  0.132E-01  0.126E-02  0.599E-02  0.599E-02
  10.016  0.125E-01  0.127E-02  0.562E-02  0.562E-02
  10.026  0.117E-01  0.127E-02  0.522E-02  0.522E-02
  10.036  0.109E-01  0.126E-02  0.480E-02  0.480E-02
  10.046  0.100E-01  0.125E-02  0.438E-02  0.438E-02
  10.056  0.915E-02  0.122E-02  0.396E-02  0.396E-02
  10.066  0.830E-02  0.119E-02  0.355E-02  0.355E-02
  10.076  0.748E-02  0.116E-02  0.316E-02  0.316E-02
  10.086  0.670E-02  0.112E-02  0.279E-02  0.279E-02
  10.096  0.598E-02  0.108E-02  0.245E-02  0.245E-02
  10.106  0.531E-02  0.104E-02  0.213E-02  0.213E-02
  10.116  0.470E-02  0.100E-02  0.185E-02  0.185E-02
  10.126  0.416E-02  0.968E-03  0.160E-02  0.160E-02
  10.136  0.369E-02  0.935E-03  0.138E-02  0.138E-02
  10.146  0.327E-02  0.908E-03  0.118E-02  0.118E-02
  10.156  0.292E-02  0.886E-03  0.102E-02  0.102E-02
  10.166  0.262E-02  0.870E-03  0.875E-03  0.875E-03
  10.176  0.237E-02  0.861E-03  0.756E-03  0.756E-03
  10.186  0.217E-02  0.860E-03  0.656E-03  0.656E-03
  10.196  0.201E-02  0.866E-03  0.572E-03  0.572E-03
  10.206  0.188E-02  0.878E-03  0.503E-03  0.503E-03
  10.216  0.179E-02  0.896E-03  0.445E-03  0.445E-03
  10.226  0.171E-02  0.920E-03  0.396E-03  0.396E-03
  10.236  0.166E-02  0.947E-03  0.356E-03  0.356E-03
  10.246  0.162E-02  0.978E-03  0.322E-03  0.322E-03
  10.256  0.160E-02  0.101E-02  0.293E-03  0.293E-03
  10.266  0.158E-02  0.104E-02  0.268E-03  0.268E-03
  10.276  0.157E-02  0.107E-02  0.247E-03  0.247E-03
  10.286  0.156E-02  0.110E-02  0.229E-03  0.229E-03
  10.296  0.155E-02  0.112E-02  0.213E-03  0.213E-03
  10.306  0.154E-02  0.114E-02  0.200E-03  0.200E-03
  10.316  0.152E-02  0.115E-02  0.188E-03  0.188E-03
  10.326  0.150E-02  0.115E-02  0.177E-03  0.177E-03
  10.336  0.148E-02  0.114E-02  0.168E-03  0.168E-03
  10.346  0.145E-02  0.113E-02  0.161E-03  0.161E-03
  10.356  0.141E-02  0.110E-02  0.154E-03  0.154E-03
  10.366  0.137E-02  0.107E-02  0.149E-03  0.149E-03
  10.376  0.132E-02  0.103E-02  0.145E-03  0.145E-03
  10.386  0.126E-02  0.978E-03  0.143E-03  0.143E-03
  10.396  0.121E-02  0.922E-03  0.142E-03  0.142E-03
  10.406  0.115E-02  0.862E-03  0.143E-03  0.143E-03
  10.416  0.109E-02  0.798E-03  0.148E-03  0.148E-03
  10.426  0.104E-02  0.732E-03  0.155E-03  0.155E-03
  10.436  0.998E-03  0.664E-03  0.167E-03  0.167E-03
  10.446  0.966E-03  0.597E-03  0.184E-03  0.184E-03
  10.456  0.948E-03  0.531E-03  0.208E-03  0.208E-03
  10.466  0.950E-03  0.468E-03  0.241E-03  0.241E-03
  10.476  0.975E-03  0.408E-03  0.283E-03  0.283E-03
  10.486  0.103E-02  0.352E-03  0.338E-03  0.338E-03
  10.496  0.112E-02  0.301E-03  0.407E-03  0.407E-03
  10.506  0.124E-02  0.254E-03  0.493E-03  0.493E-03
  10.516  0.141E-02  0.213E-03  0.596E-03  0.596E-03
  10.526  0.162E-02  0.176E-03  0.721E-03  0.721E-03
  10.536  0.188E-02  0.144E-03  0.867E-03  0.867E-03
  10.546  0.219E-02  0.117E-03  0.104E-02  0.104E-02
  10.556  0.256E-02  0.940E-04  0.123E-02  0.123E-02
  10.566  0.297E-02  0.746E-04  0.145E-02  0.145E-02
  10.576  0.344E-02  0.586E-04  0.169E-02  0.169E-02
  10.586  0.396E-02  0.456E-04  0.196E-02  0.196E-02
  10.596  0.452E-02  0.351E-04  0.224E-02  0.224E-02
  10.606  0.511E-02  0.267E-04  0.254E-02  0.254E-02
  10.616  0.572E-02  0.201E-04  0.285E-02  0.285E-02
  10.626  0.635E-02  0.150E-04  0.317E-02  0.317E-02
  10.636  0.697E-02  0.110E-04  0.348E-02  0.348E-02
  10.646  0.758E-02  0.805E-05  0.379E-02  0.379E-02
  10.656  0.816E-02  0.581E-05  0.408E-02  0.408E-02
  10.666  0.869E-02  0.415E-05  0.434E-02  0.434E-02
  10.676  0.916E-02  0.293E-05  0.458E-02  0.458E-02
  10.686  0.955E-02  0.205E-05  0.477E-02  0.477E-02
  10.696  0.985E-02  0.142E-05  0.493E-02  0.493E-02
  10.706  0.101E-01  0.968E-06  0.503E-02  0.503E-02
  10.716  0.102E-01  0.655E-06  0.509E-02  0.509E-02
  10.726  0.102E-01  0.439E-06  0.509E-02  0.509E-02
  10.736  0.101E-01  0.290E-06  0.504E-02  0.504E-02
  10.746  0.987E-02  0.190E-06  0.493E-02  0.493E-02
  10.756  0.957E-02  0.123E-06  0.478E-02  0.478E-02
  10.766  0.918E-02  0.791E-07  0.459E-02  0.459E-02
  10.776  0.872E-02  0.502E-07  0.436E-02  0.436E-02
  10.786  0.820E-02  0.315E-07  0.410E-02  0.410E-02
  10.796  0.764E-02  0.196E-07  0.382E-02  0.382E-02
  10.806  0.704E-02  0.120E-07  0.352E-02  0.352E-02
  10.816  0.643E-02  0.730E-08  0.321E-02  0.321E-02
  10.826  0.582E-02  0.439E-08  0.291E-02  0.291E-02
  10.836  0.521E-02  0.261E-08  0.261E-02  0.261E-02
  10.846  0.463E-02  0.154E-08  0.231E-02  0.231E-02
  10.856  0.408E-02  0.894E-09  0.204E-02  0.204E-02
  10.866  0.356E-02  0.515E-09  0.178E-02  0.178E-02
  10.876  0.309E-02  0.293E-09  0.154E-02  0.154E-02
  10.886  0.266E-02  0.165E-09  0.133E-02  0.133E-02
  10.896  0.228E-02  0.921E-10  0.114E-02  0.114E-02
  10.906  0.195E-02  0.508E-10  0.973E-03  0.973E-03
  10.916  0.166E-02  0.277E-10  0.828E-03  0.828E-03
  10.926  0.141E-02  0.150E-10  0.704E-03  0.704E-03
  10.936  0.120E-02  0.799E-11  0.600E-03  0.600E-03
  10.946  0.103E-02  0.422E-11  0.513E-03  0.513E-03
  10.956  0.883E-03  0.221E-11  0.442E-03  0.442E-03
  10.966  0.767E-03  0.115E-11  0.384E-03  0.384E-03
  10.976  0.674E-03  0.590E-12  0.337E-03  0.337E-03
  10.986  0.599E-03  0.303E-12  0.299E-03  0.299E-03
  10.996  0.539E-03  0.157E-12  0.270E-03  0.270E-03
  11.006  0.492E-03  0.829E-13  0.246E-03  0.246E-03
  11.016  0.454E-03  0.461E-13  0.227E-03  0.227E-03
  11.026  0.424E-03  0.281E-13  0.212E-03  0.212E-03
  11.036  0.398E-03  0.194E-13  0.199E-03  0.199E-03
  11.046  0.377E-03  0.140E-13  0.188E-03  0.188E-03
  11.056  0.358E-03  0.113E-13  0.179E-03  0.179E-03
  11.066  0.341E-03  0.113E-13  0.171E-03  0.171E-03
  11.076  0.326E-03  0.112E-13  0.163E-03  0.163E-03
  11.086  0.312E-03  0.109E-13  0.156E-03  0.156E-03
  11.096  0.298E-03  0.106E-13  0.149E-03  0.149E-03
  11.106  0.285E-03  0.102E-13  0.143E-03  0.143E-03
  11.116  0.273E-03  0.966E-14  0.137E-03  0.137E-03
  11.126  0.262E-03  0.910E-14  0.131E-03  0.131E-03
  11.136  0.252E-03  0.850E-14  0.126E-03  0.126E-03
  11.146  0.243E-03  0.786E-14  0.121E-03  0.121E-03
  11.156  0.235E-03  0.721E-14  0.118E-03  0.118E-03
  11.166  0.229E-03  0.656E-14  0.114E-03  0.114E-03
  11.176  0.224E-03  0.591E-14  0.112E-03  0.112E-03
  11.186  0.222E-03  0.529E-14  0.111E-03  0.111E-03
  11.196  0.222E-03  0.469E-14  0.111E-03  0.111E-03
  11.206  0.225E-03  0.412E-14  0.113E-03  0.113E-03
  11.216  0.231E-03  0.360E-14  0.116E-03  0.116E-03
  11.226  0.241E-03  0.312E-14  0.121E-03  0.121E-03
  11.236  0.255E-03  0.269E-14  0.127E-03  0.127E-03
  11.246  0.273E-03  0.230E-14  0.137E-03  0.137E-03
  11.256  0.297E-03  0.195E-14  0.149E-03  0.149E-03
  11.266  0.326E-03  0.164E-14  0.163E-03  0.163E-03
  11.276  0.362E-03  0.138E-14  0.181E-03  0.181E-03
  11.286  0.403E-03  0.115E-14  0.202E-03  0.202E-03
  11.296  0.451E-03  0.952E-15  0.226E-03  0.226E-03
  11.306  0.506E-03  0.784E-15  0.253E-03  0.253E-03
  11.316  0.566E-03  0.643E-15  0.283E-03  0.283E-03
  11.326  0.632E-03  0.524E-15  0.316E-03  0.316E-03
  11.336  0.703E-03  0.424E-15  0.351E-03  0.351E-03
  11.346  0.778E-03  0.342E-15  0.389E-03  0.389E-03
  11.356  0.855E-03  0.274E-15  0.427E-03  0.427E-03
  11.366  0.933E-03  0.219E-15  0.466E-03  0.466E-03
  11.376  0.101E-02  0.173E-15  0.505E-03  0.505E-03
  11.386  0.109E-02  0.137E-15  0.543E-03  0.543E-03
  11.396  0.116E-02  0.107E-15  0.579E-03  0.579E-03
  11.406  0.123E-02  0.832E-16  0.613E-03  0.613E-03
  11.416  0.129E-02  0.644E-16  0.643E-03  0.643E-03
  11.426  0.134E-02  0.495E-16  0.670E-03  0.670E-03
  11.436  0.138E-02  0.379E-16  0.692E-03  0.692E-03
  11.446  0.142E-02  0.288E-16  0.710E-03  0.710E-03
  11.456  0.145E-02  0.218E-16  0.724E-03  0.724E-03
  11.466  0.147E-02  0.164E-16  0.733E-03  0.733E-03
  11.476  0.148E-02  0.124E-16  0.739E-03  0.739E-03
  11.486  0.148E-02  0.933E-17  0.741E-03  0.741E-03
  11.496  0.148E-02  0.710E-17  0.740E-03  0.740E-03
  11.506  0.147E-02  0.549E-17  0.737E-03  0.737E-03
  11.516  0.146E-02  0.434E-17  0.732E-03  0.732E-03
  11.526  0.145E-02  0.356E-17  0.726E-03  0.726E-03
  11.536  0.144E-02  0.304E-17  0.720E-03  0.720E-03
  11.546  0.143E-02  0.274E-17  0.714E-03  0.714E-03
  11.556  0.142E-02  0.259E-17  0.708E-03  0.708E-03
  11.566  0.140E-02  0.257E-17  0.702E-03  0.702E-03
  11.576  0.139E-02  0.265E-17  0.696E-03  0.696E-03
  11.586  0.138E-02  0.282E-17  0.690E-03  0.690E-03
  11.596  0.137E-02  0.309E-17  0.684E-03  0.684E-03
  11.606  0.135E-02  0.346E-17  0.677E-03  0.677E-03
  11.616  0.134E-02  0.396E-17  0.668E-03  0.668E-03
  11.626  0.132E-02  0.464E-17  0.658E-03  0.658E-03
  11.636  0.129E-02  0.555E-17  0.645E-03  0.645E-03
  11.646  0.126E-02  0.676E-17  0.630E-03  0.630E-03
  11.656  0.122E-02  0.838E-17  0.612E-03  0.612E-03
  11.666  0.118E-02  0.105E-16  0.590E-03  0.590E-03
  11.676  0.113E-02  0.134E-16  0.565E-03  0.565E-03
  11.686  0.108E-02  0.171E-16  0.538E-03  0.538E-03
  11.696  0.101E-02  0.219E-16  0.507E-03  0.507E-03
  11.706  0.950E-03  0.281E-16  0.475E-03  0.475E-03
  11.716  0.881E-03  0.359E-16  0.441E-03  0.441E-03
  11.726  0.811E-03  0.457E-16  0.406E-03  0.406E-03
  11.736  0.741E-03  0.578E-16  0.370E-03  0.370E-03
  11.746  0.671E-03  0.726E-16  0.336E-03  0.336E-03
  11.756  0.604E-03  0.904E-16  0.302E-03  0.302E-03
  11.766  0.539E-03  0.111E-15  0.270E-03  0.270E-03
  11.776  0.480E-03  0.136E-15  0.240E-03  0.240E-03
  11.786  0.426E-03  0.165E-15  0.213E-03  0.213E-03
  11.796  0.378E-03  0.197E-15  0.189E-03  0.189E-03
  11.806  0.337E-03  0.234E-15  0.168E-03  0.168E-03
  11.816  0.303E-03  0.274E-15  0.151E-03  0.151E-03
  11.826  0.276E-03  0.318E-15  0.138E-03  0.138E-03
  11.836  0.257E-03  0.366E-15  0.129E-03  0.129E-03
  11.846  0.246E-03  0.416E-15  0.123E-03  0.123E-03
  11.856  0.242E-03  0.467E-15  0.121E-03  0.121E-03
  11.866  0.245E-03  0.520E-15  0.123E-03  0.123E-03
  11.876  0.256E-03  0.572E-15  0.128E-03  0.128E-03
  11.886  0.273E-03  0.623E-15  0.137E-03  0.137E-03
  11.896  0.297E-03  0.671E-15  0.149E-03  0.149E-03
  11.906  0.327E-03  0.715E-15  0.164E-03  0.164E-03
  11.916  0.364E-03  0.753E-15  0.182E-03  0.182E-03
  11.926  0.407E-03  0.785E-15  0.203E-03  0.203E-03
  11.936  0.455E-03  0.810E-15  0.227E-03  0.227E-03
  11.946  0.509E-03  0.827E-15  0.254E-03  0.254E-03
  11.956  0.568E-03  0.835E-15  0.284E-03  0.284E-03
  11.966  0.632E-03  0.834E-15  0.316E-03  0.316E-03
  11.976  0.702E-03  0.824E-15  0.351E-03  0.351E-03
  11.986  0.775E-03  0.806E-15  0.388E-03  0.388E-03
  11.996  0.854E-03  0.779E-15  0.427E-03  0.427E-03
  12.006  0.936E-03  0.745E-15  0.468E-03  0.468E-03
  12.016  0.102E-02  0.705E-15  0.511E-03  0.511E-03
  12.026  0.111E-02  0.661E-15  0.555E-03  0.555E-03
  12.036  0.120E-02  0.612E-15  0.601E-03  0.601E-03
  12.046  0.130E-02  0.561E-15  0.648E-03  0.648E-03
  12.056  0.139E-02  0.508E-15  0.696E-03  0.696E-03
  12.066  0.149E-02  0.456E-15  0.744E-03  0.744E-03
  12.076  0.158E-02  0.405E-15  0.792E-03  0.792E-03
  12.086  0.168E-02  0.355E-15  0.838E-03  0.838E-03
  12.096  0.177E-02  0.309E-15  0.883E-03  0.883E-03
  12.106  0.185E-02  0.265E-15  0.926E-03  0.926E-03
  12.116  0.193E-02  0.226E-15  0.965E-03  0.965E-03
  12.126  0.200E-02  0.190E-15  0.100E-02  0.100E-02
  12.136  0.206E-02  0.158E-15  0.103E-02  0.103E-02
  12.146  0.211E-02  0.130E-15  0.105E-02  0.105E-02
  12.156  0.214E-02  0.106E-15  0.107E-02  0.107E-02
  12.166  0.216E-02  0.858E-16  0.108E-02  0.108E-02
  12.176  0.216E-02  0.685E-16  0.108E-02  0.108E-02
  12.186  0.215E-02  0.542E-16  0.107E-02  0.107E-02
  12.196  0.212E-02  0.425E-16  0.106E-02  0.106E-02
  12.206  0.207E-02  0.330E-16  0.103E-02  0.103E-02
  12.216  0.200E-02  0.253E-16  0.100E-02  0.100E-02
  12.226  0.192E-02  0.193E-16  0.961E-03  0.961E-03
  12.236  0.183E-02  0.146E-16  0.914E-03  0.914E-03
  12.246  0.172E-02  0.110E-16  0.862E-03  0.862E-03
  12.256  0.161E-02  0.816E-17  0.804E-03  0.804E-03
  12.266  0.149E-02  0.605E-17  0.743E-03  0.743E-03
  12.276  0.136E-02  0.446E-17  0.681E-03  0.681E-03
  12.286  0.123E-02  0.327E-17  0.617E-03  0.617E-03
  12.296  0.111E-02  0.240E-17  0.554E-03  0.554E-03
  12.306  0.983E-03  0.175E-17  0.492E-03  0.492E-03
  12.316  0.865E-03  0.128E-17  0.432E-03  0.432E-03
  12.326  0.752E-03  0.942E-18  0.376E-03  0.376E-03
  12.336  0.648E-03  0.693E-18  0.324E-03  0.324E-03
  12.346  0.552E-03  0.512E-18  0.276E-03  0.276E-03
  12.356  0.466E-03  0.381E-18  0.233E-03  0.233E-03
  12.366  0.389E-03  0.284E-18  0.194E-03  0.194E-03
  12.376  0.321E-03  0.213E-18  0.161E-03  0.161E-03
  12.386  0.262E-03  0.160E-18  0.131E-03  0.131E-03
  12.396  0.212E-03  0.121E-18  0.106E-03  0.106E-03
  12.406  0.170E-03  0.910E-19  0.848E-04  0.848E-04
  12.416  0.134E-03  0.686E-19  0.672E-04  0.672E-04
  12.426  0.105E-03  0.517E-19  0.526E-04  0.526E-04
  12.436  0.815E-04  0.388E-19  0.407E-04  0.407E-04
  12.446  0.625E-04  0.290E-19  0.312E-04  0.312E-04
  12.456  0.474E-04  0.215E-19  0.237E-04  0.237E-04
  12.466  0.355E-04  0.159E-19  0.178E-04  0.178E-04
  12.476  0.264E-04  0.116E-19  0.132E-04  0.132E-04
  12.486  0.194E-04  0.846E-20  0.968E-05  0.968E-05
  12.496  0.141E-04  0.609E-20  0.703E-05  0.703E-05
  12.506  0.101E-04  0.435E-20  0.505E-05  0.505E-05
  12.516  0.719E-05  0.308E-20  0.359E-05  0.359E-05
  12.526  0.505E-05  0.216E-20  0.253E-05  0.253E-05
  12.536  0.352E-05  0.149E-20  0.176E-05  0.176E-05
  12.546  0.242E-05  0.103E-20  0.121E-05  0.121E-05
  12.556  0.165E-05  0.697E-21  0.824E-06  0.824E-06
  12.566  0.111E-05  0.469E-21  0.555E-06  0.555E-06
  12.576  0.740E-06  0.312E-21  0.370E-06  0.370E-06
  12.586  0.488E-06  0.206E-21  0.244E-06  0.244E-06
  12.596  0.318E-06  0.134E-21  0.159E-06  0.159E-06
  12.606  0.205E-06  0.864E-22  0.103E-06  0.103E-06
