# E (eV)  dos(E)    pdos(E)
 -22.954  0.311E-05  0.305E-05
 -22.944  0.491E-05  0.483E-05
 -22.934  0.769E-05  0.755E-05
 -22.924  0.119E-04  0.117E-04
 -22.914  0.183E-04  0.179E-04
 -22.904  0.277E-04  0.272E-04
 -22.894  0.416E-04  0.409E-04
 -22.884  0.619E-04  0.608E-04
 -22.874  0.910E-04  0.894E-04
 -22.864  0.133E-03  0.130E-03
 -22.854  0.191E-03  0.188E-03
 -22.844  0.273E-03  0.268E-03
 -22.834  0.386E-03  0.379E-03
 -22.824  0.540E-03  0.530E-03
 -22.814  0.748E-03  0.734E-03
 -22.804  0.103E-02  0.101E-02
 -22.794  0.139E-02  0.137E-02
 -22.784  0.187E-02  0.184E-02
 -22.774  0.249E-02  0.245E-02
 -22.764  0.329E-02  0.323E-02
 -22.754  0.429E-02  0.421E-02
 -22.744  0.555E-02  0.545E-02
 -22.734  0.710E-02  0.697E-02
 -22.724  0.901E-02  0.885E-02
 -22.714  0.113E-01  0.111E-01
 -22.704  0.141E-01  0.138E-01
 -22.694  0.174E-01  0.171E-01
 -22.684  0.212E-01  0.209E-01
 -22.674  0.257E-01  0.253E-01
 -22.664  0.309E-01  0.303E-01
 -22.654  0.367E-01  0.360E-01
 -22.644  0.433E-01  0.425E-01
 -22.634  0.506E-01  0.497E-01
 -22.624  0.586E-01  0.576E-01
 -22.614  0.674E-01  0.661E-01
 -22.604  0.768E-01  0.754E-01
 -22.594  0.868E-01  0.852E-01
 -22.584  0.973E-01  0.956E-01
 -22.574  0.108E+00  0.106E+00
 -22.564  0.120E+00  0.118E+00
 -22.554  0.131E+00  0.129E+00
 -22.544  0.143E+00  0.140E+00
 -22.534  0.155E+00  0.152E+00
 -22.524  0.166E+00  0.163E+00
 -22.514  0.177E+00  0.174E+00
 -22.504  0.188E+00  0.185E+00
 -22.494  0.199E+00  0.195E+00
 -22.484  0.208E+00  0.205E+00
 -22.474  0.218E+00  0.214E+00
 -22.464  0.226E+00  0.222E+00
 -22.454  0.234E+00  0.230E+00
 -22.444  0.241E+00  0.236E+00
 -22.434  0.247E+00  0.243E+00
 -22.424  0.253E+00  0.248E+00
 -22.414  0.258E+00  0.253E+00
 -22.404  0.262E+00  0.257E+00
 -22.394  0.266E+00  0.261E+00
 -22.384  0.269E+00  0.264E+00
 -22.374  0.271E+00  0.266E+00
 -22.364  0.274E+00  0.268E+00
 -22.354  0.275E+00  0.270E+00
 -22.344  0.277E+00  0.272E+00
 -22.334  0.278E+00  0.273E+00
 -22.324  0.279E+00  0.274E+00
 -22.314  0.280E+00  0.274E+00
 -22.304  0.280E+00  0.275E+00
 -22.294  0.281E+00  0.275E+00
 -22.284  0.281E+00  0.276E+00
 -22.274  0.281E+00  0.276E+00
 -22.264  0.282E+00  0.276E+00
 -22.254  0.282E+00  0.276E+00
 -22.244  0.282E+00  0.277E+00
 -22.234  0.282E+00  0.277E+00
 -22.224  0.282E+00  0.277E+00
 -22.214  0.282E+00  0.277E+00
 -22.204  0.282E+00  0.277E+00
 -22.194  0.282E+00  0.277E+00
 -22.184  0.282E+00  0.277E+00
 -22.174  0.282E+00  0.277E+00
 -22.164  0.282E+00  0.277E+00
 -22.154  0.282E+00  0.277E+00
 -22.144  0.282E+00  0.277E+00
 -22.134  0.282E+00  0.277E+00
 -22.124  0.282E+00  0.277E+00
 -22.114  0.282E+00  0.276E+00
 -22.104  0.282E+00  0.277E+00
 -22.094  0.282E+00  0.277E+00
 -22.084  0.282E+00  0.277E+00
 -22.074  0.282E+00  0.277E+00
 -22.064  0.283E+00  0.277E+00
 -22.054  0.283E+00  0.278E+00
 -22.044  0.283E+00  0.278E+00
 -22.034  0.284E+00  0.278E+00
 -22.024  0.284E+00  0.278E+00
 -22.014  0.284E+00  0.278E+00
 -22.004  0.284E+00  0.278E+00
 -21.994  0.284E+00  0.278E+00
 -21.984  0.283E+00  0.278E+00
 -21.974  0.283E+00  0.278E+00
 -21.964  0.283E+00  0.277E+00
 -21.954  0.282E+00  0.277E+00
 -21.944  0.282E+00  0.276E+00
 -21.934  0.281E+00  0.276E+00
 -21.924  0.281E+00  0.275E+00
 -21.914  0.281E+00  0.275E+00
 -21.904  0.281E+00  0.275E+00
 -21.894  0.281E+00  0.276E+00
 -21.884  0.282E+00  0.276E+00
 -21.874  0.282E+00  0.277E+00
 -21.864  0.283E+00  0.277E+00
 -21.854  0.284E+00  0.278E+00
 -21.844  0.285E+00  0.279E+00
 -21.834  0.286E+00  0.280E+00
 -21.824  0.286E+00  0.281E+00
 -21.814  0.287E+00  0.281E+00
 -21.804  0.287E+00  0.281E+00
 -21.794  0.287E+00  0.281E+00
 -21.784  0.286E+00  0.281E+00
 -21.774  0.286E+00  0.280E+00
 -21.764  0.285E+00  0.279E+00
 -21.754  0.284E+00  0.278E+00
 -21.744  0.282E+00  0.277E+00
 -21.734  0.281E+00  0.275E+00
 -21.724  0.280E+00  0.274E+00
 -21.714  0.279E+00  0.273E+00
 -21.704  0.278E+00  0.273E+00
 -21.694  0.278E+00  0.272E+00
 -21.684  0.278E+00  0.272E+00
 -21.674  0.278E+00  0.273E+00
 -21.664  0.279E+00  0.274E+00
 -21.654  0.281E+00  0.275E+00
 -21.644  0.282E+00  0.276E+00
 -21.634  0.284E+00  0.278E+00
 -21.624  0.286E+00  0.280E+00
 -21.614  0.288E+00  0.282E+00
 -21.604  0.289E+00  0.283E+00
 -21.594  0.291E+00  0.285E+00
 -21.584  0.292E+00  0.286E+00
 -21.574  0.292E+00  0.286E+00
 -21.564  0.292E+00  0.286E+00
 -21.554  0.291E+00  0.285E+00
 -21.544  0.290E+00  0.284E+00
 -21.534  0.289E+00  0.283E+00
 -21.524  0.287E+00  0.281E+00
 -21.514  0.284E+00  0.279E+00
 -21.504  0.282E+00  0.276E+00
 -21.494  0.280E+00  0.274E+00
 -21.484  0.277E+00  0.272E+00
 -21.474  0.276E+00  0.270E+00
 -21.464  0.274E+00  0.268E+00
 -21.454  0.273E+00  0.268E+00
 -21.444  0.273E+00  0.267E+00
 -21.434  0.274E+00  0.268E+00
 -21.424  0.275E+00  0.269E+00
 -21.414  0.276E+00  0.271E+00
 -21.404  0.279E+00  0.273E+00
 -21.394  0.281E+00  0.275E+00
 -21.384  0.284E+00  0.278E+00
 -21.374  0.287E+00  0.281E+00
 -21.364  0.290E+00  0.284E+00
 -21.354  0.293E+00  0.287E+00
 -21.344  0.296E+00  0.289E+00
 -21.334  0.297E+00  0.291E+00
 -21.324  0.299E+00  0.292E+00
 -21.314  0.299E+00  0.293E+00
 -21.304  0.299E+00  0.293E+00
 -21.294  0.298E+00  0.292E+00
 -21.284  0.296E+00  0.290E+00
 -21.274  0.294E+00  0.288E+00
 -21.264  0.291E+00  0.285E+00
 -21.254  0.287E+00  0.281E+00
 -21.244  0.284E+00  0.278E+00
 -21.234  0.280E+00  0.274E+00
 -21.224  0.277E+00  0.271E+00
 -21.214  0.273E+00  0.268E+00
 -21.204  0.271E+00  0.265E+00
 -21.194  0.269E+00  0.263E+00
 -21.184  0.267E+00  0.262E+00
 -21.174  0.267E+00  0.261E+00
 -21.164  0.267E+00  0.262E+00
 -21.154  0.269E+00  0.263E+00
 -21.144  0.271E+00  0.265E+00
 -21.134  0.274E+00  0.268E+00
 -21.124  0.277E+00  0.272E+00
 -21.114  0.281E+00  0.275E+00
 -21.104  0.286E+00  0.280E+00
 -21.094  0.290E+00  0.284E+00
 -21.084  0.294E+00  0.288E+00
 -21.074  0.298E+00  0.292E+00
 -21.064  0.301E+00  0.295E+00
 -21.054  0.304E+00  0.298E+00
 -21.044  0.306E+00  0.299E+00
 -21.034  0.307E+00  0.300E+00
 -21.024  0.307E+00  0.301E+00
 -21.014  0.306E+00  0.300E+00
 -21.004  0.305E+00  0.298E+00
 -20.994  0.302E+00  0.296E+00
 -20.984  0.299E+00  0.292E+00
 -20.974  0.295E+00  0.289E+00
 -20.964  0.291E+00  0.284E+00
 -20.954  0.286E+00  0.280E+00
 -20.944  0.281E+00  0.275E+00
 -20.934  0.276E+00  0.271E+00
 -20.924  0.272E+00  0.266E+00
 -20.914  0.268E+00  0.262E+00
 -20.904  0.265E+00  0.259E+00
 -20.894  0.262E+00  0.257E+00
 -20.884  0.261E+00  0.255E+00
 -20.874  0.260E+00  0.255E+00
 -20.864  0.261E+00  0.255E+00
 -20.854  0.262E+00  0.257E+00
 -20.844  0.265E+00  0.259E+00
 -20.834  0.268E+00  0.262E+00
 -20.824  0.272E+00  0.267E+00
 -20.814  0.277E+00  0.272E+00
 -20.804  0.283E+00  0.277E+00
 -20.794  0.288E+00  0.282E+00
 -20.784  0.294E+00  0.288E+00
 -20.774  0.300E+00  0.293E+00
 -20.764  0.304E+00  0.298E+00
 -20.754  0.309E+00  0.302E+00
 -20.744  0.312E+00  0.306E+00
 -20.734  0.315E+00  0.308E+00
 -20.724  0.316E+00  0.309E+00
 -20.714  0.316E+00  0.309E+00
 -20.704  0.315E+00  0.309E+00
 -20.694  0.313E+00  0.307E+00
 -20.684  0.310E+00  0.304E+00
 -20.674  0.306E+00  0.300E+00
 -20.664  0.302E+00  0.295E+00
 -20.654  0.297E+00  0.291E+00
 -20.644  0.291E+00  0.285E+00
 -20.634  0.286E+00  0.280E+00
 -20.624  0.280E+00  0.274E+00
 -20.614  0.275E+00  0.269E+00
 -20.604  0.270E+00  0.264E+00
 -20.594  0.266E+00  0.260E+00
 -20.584  0.262E+00  0.256E+00
 -20.574  0.259E+00  0.253E+00
 -20.564  0.257E+00  0.251E+00
 -20.554  0.255E+00  0.250E+00
 -20.544  0.255E+00  0.250E+00
 -20.534  0.256E+00  0.251E+00
 -20.524  0.258E+00  0.252E+00
 -20.514  0.261E+00  0.255E+00
 -20.504  0.264E+00  0.259E+00
 -20.494  0.269E+00  0.263E+00
 -20.484  0.274E+00  0.268E+00
 -20.474  0.280E+00  0.274E+00
 -20.464  0.286E+00  0.280E+00
 -20.454  0.292E+00  0.286E+00
 -20.444  0.299E+00  0.292E+00
 -20.434  0.305E+00  0.298E+00
 -20.424  0.311E+00  0.304E+00
 -20.414  0.316E+00  0.309E+00
 -20.404  0.320E+00  0.313E+00
 -20.394  0.323E+00  0.316E+00
 -20.384  0.325E+00  0.318E+00
 -20.374  0.326E+00  0.319E+00
 -20.364  0.325E+00  0.318E+00
 -20.354  0.323E+00  0.317E+00
 -20.344  0.320E+00  0.314E+00
 -20.334  0.316E+00  0.310E+00
 -20.324  0.311E+00  0.305E+00
 -20.314  0.305E+00  0.299E+00
 -20.304  0.299E+00  0.292E+00
 -20.294  0.292E+00  0.286E+00
 -20.284  0.285E+00  0.279E+00
 -20.274  0.278E+00  0.272E+00
 -20.264  0.271E+00  0.266E+00
 -20.254  0.265E+00  0.260E+00
 -20.244  0.260E+00  0.255E+00
 -20.234  0.256E+00  0.250E+00
 -20.224  0.252E+00  0.247E+00
 -20.214  0.250E+00  0.245E+00
 -20.204  0.249E+00  0.244E+00
 -20.194  0.249E+00  0.244E+00
 -20.184  0.250E+00  0.245E+00
 -20.174  0.252E+00  0.247E+00
 -20.164  0.255E+00  0.250E+00
 -20.154  0.259E+00  0.254E+00
 -20.144  0.264E+00  0.259E+00
 -20.134  0.270E+00  0.264E+00
 -20.124  0.276E+00  0.270E+00
 -20.114  0.282E+00  0.276E+00
 -20.104  0.289E+00  0.283E+00
 -20.094  0.295E+00  0.289E+00
 -20.084  0.302E+00  0.295E+00
 -20.074  0.308E+00  0.301E+00
 -20.064  0.313E+00  0.307E+00
 -20.054  0.318E+00  0.312E+00
 -20.044  0.323E+00  0.316E+00
 -20.034  0.326E+00  0.319E+00
 -20.024  0.329E+00  0.322E+00
 -20.014  0.330E+00  0.323E+00
 -20.004  0.331E+00  0.324E+00
 -19.994  0.330E+00  0.323E+00
 -19.984  0.329E+00  0.322E+00
 -19.974  0.326E+00  0.319E+00
 -19.964  0.322E+00  0.316E+00
 -19.954  0.318E+00  0.311E+00
 -19.944  0.313E+00  0.306E+00
 -19.934  0.307E+00  0.300E+00
 -19.924  0.300E+00  0.294E+00
 -19.914  0.293E+00  0.287E+00
 -19.904  0.286E+00  0.280E+00
 -19.894  0.278E+00  0.273E+00
 -19.884  0.271E+00  0.265E+00
 -19.874  0.264E+00  0.259E+00
 -19.864  0.258E+00  0.253E+00
 -19.854  0.252E+00  0.247E+00
 -19.844  0.248E+00  0.243E+00
 -19.834  0.244E+00  0.239E+00
 -19.824  0.242E+00  0.237E+00
 -19.814  0.241E+00  0.236E+00
 -19.804  0.241E+00  0.236E+00
 -19.794  0.243E+00  0.238E+00
 -19.784  0.246E+00  0.241E+00
 -19.774  0.250E+00  0.245E+00
 -19.764  0.255E+00  0.250E+00
 -19.754  0.262E+00  0.257E+00
 -19.744  0.269E+00  0.264E+00
 -19.734  0.277E+00  0.271E+00
 -19.724  0.285E+00  0.280E+00
 -19.714  0.294E+00  0.288E+00
 -19.704  0.302E+00  0.296E+00
 -19.694  0.310E+00  0.304E+00
 -19.684  0.317E+00  0.311E+00
 -19.674  0.323E+00  0.317E+00
 -19.664  0.329E+00  0.322E+00
 -19.654  0.333E+00  0.326E+00
 -19.644  0.336E+00  0.329E+00
 -19.634  0.338E+00  0.331E+00
 -19.624  0.339E+00  0.332E+00
 -19.614  0.338E+00  0.331E+00
 -19.604  0.336E+00  0.329E+00
 -19.594  0.334E+00  0.327E+00
 -19.584  0.330E+00  0.323E+00
 -19.574  0.326E+00  0.319E+00
 -19.564  0.321E+00  0.315E+00
 -19.554  0.316E+00  0.309E+00
 -19.544  0.310E+00  0.304E+00
 -19.534  0.304E+00  0.298E+00
 -19.524  0.299E+00  0.292E+00
 -19.514  0.293E+00  0.287E+00
 -19.504  0.287E+00  0.281E+00
 -19.494  0.281E+00  0.275E+00
 -19.484  0.275E+00  0.269E+00
 -19.474  0.269E+00  0.264E+00
 -19.464  0.264E+00  0.258E+00
 -19.454  0.259E+00  0.253E+00
 -19.444  0.254E+00  0.249E+00
 -19.434  0.250E+00  0.245E+00
 -19.424  0.246E+00  0.241E+00
 -19.414  0.244E+00  0.239E+00
 -19.404  0.242E+00  0.237E+00
 -19.394  0.241E+00  0.236E+00
 -19.384  0.241E+00  0.236E+00
 -19.374  0.243E+00  0.238E+00
 -19.364  0.245E+00  0.240E+00
 -19.354  0.249E+00  0.244E+00
 -19.344  0.254E+00  0.249E+00
 -19.334  0.260E+00  0.255E+00
 -19.324  0.267E+00  0.262E+00
 -19.314  0.276E+00  0.270E+00
 -19.304  0.284E+00  0.279E+00
 -19.294  0.294E+00  0.288E+00
 -19.284  0.303E+00  0.297E+00
 -19.274  0.312E+00  0.306E+00
 -19.264  0.321E+00  0.315E+00
 -19.254  0.330E+00  0.323E+00
 -19.244  0.337E+00  0.331E+00
 -19.234  0.344E+00  0.337E+00
 -19.224  0.348E+00  0.342E+00
 -19.214  0.352E+00  0.345E+00
 -19.204  0.354E+00  0.347E+00
 -19.194  0.354E+00  0.347E+00
 -19.184  0.352E+00  0.345E+00
 -19.174  0.349E+00  0.342E+00
 -19.164  0.344E+00  0.338E+00
 -19.154  0.339E+00  0.332E+00
 -19.144  0.332E+00  0.326E+00
 -19.134  0.325E+00  0.318E+00
 -19.124  0.317E+00  0.310E+00
 -19.114  0.308E+00  0.302E+00
 -19.104  0.300E+00  0.294E+00
 -19.094  0.292E+00  0.286E+00
 -19.084  0.285E+00  0.279E+00
 -19.074  0.277E+00  0.272E+00
 -19.064  0.271E+00  0.266E+00
 -19.054  0.265E+00  0.260E+00
 -19.044  0.260E+00  0.255E+00
 -19.034  0.256E+00  0.251E+00
 -19.024  0.253E+00  0.248E+00
 -19.014  0.250E+00  0.245E+00
 -19.004  0.248E+00  0.243E+00
 -18.994  0.246E+00  0.241E+00
 -18.984  0.245E+00  0.241E+00
 -18.974  0.245E+00  0.240E+00
 -18.964  0.246E+00  0.241E+00
 -18.954  0.247E+00  0.242E+00
 -18.944  0.248E+00  0.244E+00
 -18.934  0.251E+00  0.246E+00
 -18.924  0.254E+00  0.249E+00
 -18.914  0.257E+00  0.252E+00
 -18.904  0.262E+00  0.257E+00
 -18.894  0.267E+00  0.262E+00
 -18.884  0.273E+00  0.268E+00
 -18.874  0.279E+00  0.274E+00
 -18.864  0.286E+00  0.281E+00
 -18.854  0.293E+00  0.288E+00
 -18.844  0.301E+00  0.295E+00
 -18.834  0.309E+00  0.303E+00
 -18.824  0.316E+00  0.310E+00
 -18.814  0.324E+00  0.318E+00
 -18.804  0.331E+00  0.325E+00
 -18.794  0.338E+00  0.331E+00
 -18.784  0.344E+00  0.337E+00
 -18.774  0.349E+00  0.342E+00
 -18.764  0.353E+00  0.346E+00
 -18.754  0.355E+00  0.349E+00
 -18.744  0.357E+00  0.350E+00
 -18.734  0.357E+00  0.351E+00
 -18.724  0.356E+00  0.350E+00
 -18.714  0.354E+00  0.347E+00
 -18.704  0.350E+00  0.344E+00
 -18.694  0.345E+00  0.339E+00
 -18.684  0.339E+00  0.333E+00
 -18.674  0.332E+00  0.326E+00
 -18.664  0.324E+00  0.318E+00
 -18.654  0.315E+00  0.309E+00
 -18.644  0.306E+00  0.301E+00
 -18.634  0.297E+00  0.291E+00
 -18.624  0.287E+00  0.282E+00
 -18.614  0.278E+00  0.273E+00
 -18.604  0.269E+00  0.264E+00
 -18.594  0.261E+00  0.256E+00
 -18.584  0.254E+00  0.249E+00
 -18.574  0.247E+00  0.243E+00
 -18.564  0.242E+00  0.238E+00
 -18.554  0.238E+00  0.233E+00
 -18.544  0.235E+00  0.230E+00
 -18.534  0.233E+00  0.229E+00
 -18.524  0.232E+00  0.228E+00
 -18.514  0.233E+00  0.229E+00
 -18.504  0.235E+00  0.231E+00
 -18.494  0.238E+00  0.234E+00
 -18.484  0.242E+00  0.237E+00
 -18.474  0.247E+00  0.242E+00
 -18.464  0.252E+00  0.248E+00
 -18.454  0.259E+00  0.254E+00
 -18.444  0.266E+00  0.261E+00
 -18.434  0.273E+00  0.268E+00
 -18.424  0.281E+00  0.276E+00
 -18.414  0.289E+00  0.283E+00
 -18.404  0.297E+00  0.291E+00
 -18.394  0.305E+00  0.299E+00
 -18.384  0.312E+00  0.307E+00
 -18.374  0.320E+00  0.314E+00
 -18.364  0.327E+00  0.321E+00
 -18.354  0.333E+00  0.327E+00
 -18.344  0.338E+00  0.332E+00
 -18.334  0.343E+00  0.337E+00
 -18.324  0.347E+00  0.341E+00
 -18.314  0.350E+00  0.344E+00
 -18.304  0.352E+00  0.346E+00
 -18.294  0.353E+00  0.347E+00
 -18.284  0.353E+00  0.347E+00
 -18.274  0.352E+00  0.346E+00
 -18.264  0.351E+00  0.345E+00
 -18.254  0.349E+00  0.343E+00
 -18.244  0.346E+00  0.340E+00
 -18.234  0.343E+00  0.337E+00
 -18.224  0.339E+00  0.333E+00
 -18.214  0.335E+00  0.329E+00
 -18.204  0.331E+00  0.325E+00
 -18.194  0.326E+00  0.320E+00
 -18.184  0.321E+00  0.316E+00
 -18.174  0.316E+00  0.310E+00
 -18.164  0.310E+00  0.305E+00
 -18.154  0.304E+00  0.299E+00
 -18.144  0.298E+00  0.293E+00
 -18.134  0.292E+00  0.287E+00
 -18.124  0.285E+00  0.280E+00
 -18.114  0.278E+00  0.273E+00
 -18.104  0.270E+00  0.266E+00
 -18.094  0.263E+00  0.259E+00
 -18.084  0.256E+00  0.252E+00
 -18.074  0.250E+00  0.245E+00
 -18.064  0.244E+00  0.239E+00
 -18.054  0.238E+00  0.234E+00
 -18.044  0.234E+00  0.230E+00
 -18.034  0.230E+00  0.227E+00
 -18.024  0.228E+00  0.225E+00
 -18.014  0.228E+00  0.224E+00
 -18.004  0.229E+00  0.225E+00
 -17.994  0.231E+00  0.227E+00
 -17.984  0.235E+00  0.231E+00
 -17.974  0.240E+00  0.236E+00
 -17.964  0.247E+00  0.243E+00
 -17.954  0.255E+00  0.251E+00
 -17.944  0.264E+00  0.260E+00
 -17.934  0.274E+00  0.270E+00
 -17.924  0.285E+00  0.281E+00
 -17.914  0.296E+00  0.292E+00
 -17.904  0.308E+00  0.303E+00
 -17.894  0.319E+00  0.314E+00
 -17.884  0.330E+00  0.324E+00
 -17.874  0.340E+00  0.334E+00
 -17.864  0.349E+00  0.343E+00
 -17.854  0.357E+00  0.351E+00
 -17.844  0.364E+00  0.358E+00
 -17.834  0.369E+00  0.363E+00
 -17.824  0.373E+00  0.367E+00
 -17.814  0.375E+00  0.369E+00
 -17.804  0.375E+00  0.369E+00
 -17.794  0.374E+00  0.368E+00
 -17.784  0.372E+00  0.366E+00
 -17.774  0.368E+00  0.362E+00
 -17.764  0.363E+00  0.357E+00
 -17.754  0.357E+00  0.351E+00
 -17.744  0.350E+00  0.345E+00
 -17.734  0.343E+00  0.337E+00
 -17.724  0.335E+00  0.330E+00
 -17.714  0.328E+00  0.322E+00
 -17.704  0.320E+00  0.315E+00
 -17.694  0.313E+00  0.308E+00
 -17.684  0.306E+00  0.301E+00
 -17.674  0.300E+00  0.295E+00
 -17.664  0.294E+00  0.289E+00
 -17.654  0.289E+00  0.285E+00
 -17.644  0.285E+00  0.280E+00
 -17.634  0.281E+00  0.277E+00
 -17.624  0.278E+00  0.274E+00
 -17.614  0.275E+00  0.271E+00
 -17.604  0.272E+00  0.268E+00
 -17.594  0.270E+00  0.266E+00
 -17.584  0.268E+00  0.264E+00
 -17.574  0.265E+00  0.261E+00
 -17.564  0.263E+00  0.259E+00
 -17.554  0.260E+00  0.256E+00
 -17.544  0.257E+00  0.253E+00
 -17.534  0.255E+00  0.251E+00
 -17.524  0.252E+00  0.248E+00
 -17.514  0.250E+00  0.246E+00
 -17.504  0.248E+00  0.244E+00
 -17.494  0.246E+00  0.243E+00
 -17.484  0.246E+00  0.242E+00
 -17.474  0.246E+00  0.243E+00
 -17.464  0.248E+00  0.244E+00
 -17.454  0.251E+00  0.247E+00
 -17.444  0.255E+00  0.252E+00
 -17.434  0.261E+00  0.257E+00
 -17.424  0.268E+00  0.264E+00
 -17.414  0.277E+00  0.273E+00
 -17.404  0.286E+00  0.282E+00
 -17.394  0.297E+00  0.292E+00
 -17.384  0.308E+00  0.303E+00
 -17.374  0.319E+00  0.315E+00
 -17.364  0.331E+00  0.326E+00
 -17.354  0.342E+00  0.337E+00
 -17.344  0.353E+00  0.348E+00
 -17.334  0.363E+00  0.357E+00
 -17.324  0.371E+00  0.366E+00
 -17.314  0.379E+00  0.373E+00
 -17.304  0.385E+00  0.379E+00
 -17.294  0.389E+00  0.383E+00
 -17.284  0.391E+00  0.386E+00
 -17.274  0.392E+00  0.386E+00
 -17.264  0.391E+00  0.386E+00
 -17.254  0.389E+00  0.383E+00
 -17.244  0.385E+00  0.379E+00
 -17.234  0.380E+00  0.374E+00
 -17.224  0.373E+00  0.368E+00
 -17.214  0.366E+00  0.360E+00
 -17.204  0.357E+00  0.352E+00
 -17.194  0.348E+00  0.343E+00
 -17.184  0.339E+00  0.334E+00
 -17.174  0.329E+00  0.324E+00
 -17.164  0.319E+00  0.315E+00
 -17.154  0.310E+00  0.305E+00
 -17.144  0.301E+00  0.296E+00
 -17.134  0.292E+00  0.288E+00
 -17.124  0.284E+00  0.280E+00
 -17.114  0.277E+00  0.273E+00
 -17.104  0.271E+00  0.267E+00
 -17.094  0.265E+00  0.262E+00
 -17.084  0.261E+00  0.258E+00
 -17.074  0.258E+00  0.254E+00
 -17.064  0.256E+00  0.252E+00
 -17.054  0.254E+00  0.251E+00
 -17.044  0.254E+00  0.251E+00
 -17.034  0.254E+00  0.251E+00
 -17.024  0.255E+00  0.252E+00
 -17.014  0.257E+00  0.253E+00
 -17.004  0.259E+00  0.255E+00
 -16.994  0.261E+00  0.258E+00
 -16.984  0.264E+00  0.260E+00
 -16.974  0.267E+00  0.263E+00
 -16.964  0.270E+00  0.266E+00
 -16.954  0.273E+00  0.269E+00
 -16.944  0.277E+00  0.273E+00
 -16.934  0.280E+00  0.277E+00
 -16.924  0.285E+00  0.281E+00
 -16.914  0.289E+00  0.286E+00
 -16.904  0.295E+00  0.291E+00
 -16.894  0.301E+00  0.297E+00
 -16.884  0.307E+00  0.303E+00
 -16.874  0.315E+00  0.311E+00
 -16.864  0.323E+00  0.319E+00
 -16.854  0.331E+00  0.327E+00
 -16.844  0.340E+00  0.336E+00
 -16.834  0.350E+00  0.345E+00
 -16.824  0.359E+00  0.355E+00
 -16.814  0.369E+00  0.364E+00
 -16.804  0.378E+00  0.373E+00
 -16.794  0.387E+00  0.382E+00
 -16.784  0.395E+00  0.390E+00
 -16.774  0.402E+00  0.397E+00
 -16.764  0.407E+00  0.402E+00
 -16.754  0.412E+00  0.407E+00
 -16.744  0.415E+00  0.410E+00
 -16.734  0.417E+00  0.412E+00
 -16.724  0.418E+00  0.413E+00
 -16.714  0.418E+00  0.413E+00
 -16.704  0.416E+00  0.411E+00
 -16.694  0.413E+00  0.408E+00
 -16.684  0.409E+00  0.405E+00
 -16.674  0.405E+00  0.400E+00
 -16.664  0.399E+00  0.395E+00
 -16.654  0.393E+00  0.389E+00
 -16.644  0.387E+00  0.382E+00
 -16.634  0.380E+00  0.375E+00
 -16.624  0.372E+00  0.368E+00
 -16.614  0.365E+00  0.361E+00
 -16.604  0.357E+00  0.353E+00
 -16.594  0.349E+00  0.345E+00
 -16.584  0.341E+00  0.337E+00
 -16.574  0.333E+00  0.329E+00
 -16.564  0.324E+00  0.321E+00
 -16.554  0.316E+00  0.312E+00
 -16.544  0.307E+00  0.304E+00
 -16.534  0.299E+00  0.296E+00
 -16.524  0.291E+00  0.288E+00
 -16.514  0.283E+00  0.280E+00
 -16.504  0.275E+00  0.273E+00
 -16.494  0.268E+00  0.265E+00
 -16.484  0.261E+00  0.259E+00
 -16.474  0.255E+00  0.252E+00
 -16.464  0.249E+00  0.247E+00
 -16.454  0.244E+00  0.242E+00
 -16.444  0.240E+00  0.237E+00
 -16.434  0.236E+00  0.234E+00
 -16.424  0.233E+00  0.231E+00
 -16.414  0.231E+00  0.229E+00
 -16.404  0.230E+00  0.228E+00
 -16.394  0.230E+00  0.227E+00
 -16.384  0.230E+00  0.228E+00
 -16.374  0.231E+00  0.229E+00
 -16.364  0.233E+00  0.231E+00
 -16.354  0.236E+00  0.234E+00
 -16.344  0.240E+00  0.237E+00
 -16.334  0.244E+00  0.241E+00
 -16.324  0.249E+00  0.246E+00
 -16.314  0.254E+00  0.251E+00
 -16.304  0.259E+00  0.257E+00
 -16.294  0.265E+00  0.262E+00
 -16.284  0.271E+00  0.268E+00
 -16.274  0.277E+00  0.274E+00
 -16.264  0.283E+00  0.280E+00
 -16.254  0.288E+00  0.285E+00
 -16.244  0.293E+00  0.290E+00
 -16.234  0.297E+00  0.294E+00
 -16.224  0.301E+00  0.298E+00
 -16.214  0.303E+00  0.300E+00
 -16.204  0.305E+00  0.302E+00
 -16.194  0.306E+00  0.302E+00
 -16.184  0.305E+00  0.302E+00
 -16.174  0.304E+00  0.300E+00
 -16.164  0.301E+00  0.298E+00
 -16.154  0.297E+00  0.294E+00
 -16.144  0.292E+00  0.289E+00
 -16.134  0.286E+00  0.283E+00
 -16.124  0.279E+00  0.276E+00
 -16.114  0.271E+00  0.268E+00
 -16.104  0.263E+00  0.260E+00
 -16.094  0.254E+00  0.251E+00
 -16.084  0.245E+00  0.242E+00
 -16.074  0.235E+00  0.232E+00
 -16.064  0.226E+00  0.223E+00
 -16.054  0.216E+00  0.214E+00
 -16.044  0.207E+00  0.205E+00
 -16.034  0.199E+00  0.197E+00
 -16.024  0.192E+00  0.189E+00
 -16.014  0.185E+00  0.183E+00
 -16.004  0.180E+00  0.177E+00
 -15.994  0.176E+00  0.173E+00
 -15.984  0.173E+00  0.170E+00
 -15.974  0.172E+00  0.169E+00
 -15.964  0.172E+00  0.169E+00
 -15.954  0.174E+00  0.171E+00
 -15.944  0.178E+00  0.175E+00
 -15.934  0.183E+00  0.180E+00
 -15.924  0.190E+00  0.187E+00
 -15.914  0.198E+00  0.195E+00
 -15.904  0.208E+00  0.205E+00
 -15.894  0.220E+00  0.216E+00
 -15.884  0.232E+00  0.228E+00
 -15.874  0.245E+00  0.241E+00
 -15.864  0.259E+00  0.255E+00
 -15.854  0.274E+00  0.270E+00
 -15.844  0.289E+00  0.285E+00
 -15.834  0.304E+00  0.299E+00
 -15.824  0.318E+00  0.313E+00
 -15.814  0.332E+00  0.327E+00
 -15.804  0.345E+00  0.340E+00
 -15.794  0.356E+00  0.351E+00
 -15.784  0.366E+00  0.361E+00
 -15.774  0.375E+00  0.369E+00
 -15.764  0.381E+00  0.376E+00
 -15.754  0.386E+00  0.381E+00
 -15.744  0.389E+00  0.384E+00
 -15.734  0.390E+00  0.384E+00
 -15.724  0.389E+00  0.384E+00
 -15.714  0.386E+00  0.381E+00
 -15.704  0.382E+00  0.377E+00
 -15.694  0.377E+00  0.372E+00
 -15.684  0.371E+00  0.367E+00
 -15.674  0.365E+00  0.360E+00
 -15.664  0.358E+00  0.353E+00
 -15.654  0.351E+00  0.346E+00
 -15.644  0.344E+00  0.340E+00
 -15.634  0.338E+00  0.333E+00
 -15.624  0.332E+00  0.327E+00
 -15.614  0.327E+00  0.322E+00
 -15.604  0.322E+00  0.317E+00
 -15.594  0.317E+00  0.312E+00
 -15.584  0.313E+00  0.308E+00
 -15.574  0.309E+00  0.304E+00
 -15.564  0.305E+00  0.300E+00
 -15.554  0.300E+00  0.296E+00
 -15.544  0.296E+00  0.291E+00
 -15.534  0.291E+00  0.287E+00
 -15.524  0.286E+00  0.282E+00
 -15.514  0.281E+00  0.276E+00
 -15.504  0.275E+00  0.271E+00
 -15.494  0.269E+00  0.265E+00
 -15.484  0.263E+00  0.259E+00
 -15.474  0.257E+00  0.253E+00
 -15.464  0.252E+00  0.248E+00
 -15.454  0.247E+00  0.243E+00
 -15.444  0.242E+00  0.239E+00
 -15.434  0.239E+00  0.235E+00
 -15.424  0.237E+00  0.233E+00
 -15.414  0.236E+00  0.232E+00
 -15.404  0.236E+00  0.233E+00
 -15.394  0.238E+00  0.235E+00
 -15.384  0.242E+00  0.238E+00
 -15.374  0.247E+00  0.243E+00
 -15.364  0.253E+00  0.250E+00
 -15.354  0.261E+00  0.257E+00
 -15.344  0.270E+00  0.266E+00
 -15.334  0.280E+00  0.276E+00
 -15.324  0.291E+00  0.287E+00
 -15.314  0.303E+00  0.299E+00
 -15.304  0.315E+00  0.311E+00
 -15.294  0.327E+00  0.323E+00
 -15.284  0.339E+00  0.335E+00
 -15.274  0.351E+00  0.346E+00
 -15.264  0.362E+00  0.357E+00
 -15.254  0.372E+00  0.367E+00
 -15.244  0.381E+00  0.376E+00
 -15.234  0.388E+00  0.383E+00
 -15.224  0.394E+00  0.389E+00
 -15.214  0.397E+00  0.392E+00
 -15.204  0.399E+00  0.394E+00
 -15.194  0.398E+00  0.393E+00
 -15.184  0.396E+00  0.390E+00
 -15.174  0.391E+00  0.386E+00
 -15.164  0.384E+00  0.379E+00
 -15.154  0.375E+00  0.370E+00
 -15.144  0.364E+00  0.359E+00
 -15.134  0.352E+00  0.348E+00
 -15.124  0.339E+00  0.335E+00
 -15.114  0.325E+00  0.321E+00
 -15.104  0.311E+00  0.307E+00
 -15.094  0.296E+00  0.292E+00
 -15.084  0.282E+00  0.278E+00
 -15.074  0.269E+00  0.265E+00
 -15.064  0.257E+00  0.253E+00
 -15.054  0.246E+00  0.243E+00
 -15.044  0.237E+00  0.234E+00
 -15.034  0.230E+00  0.227E+00
 -15.024  0.225E+00  0.222E+00
 -15.014  0.223E+00  0.220E+00
 -15.004  0.223E+00  0.220E+00
 -14.994  0.225E+00  0.222E+00
 -14.984  0.230E+00  0.227E+00
 -14.974  0.237E+00  0.234E+00
 -14.964  0.246E+00  0.243E+00
 -14.954  0.257E+00  0.253E+00
 -14.944  0.269E+00  0.266E+00
 -14.934  0.283E+00  0.279E+00
 -14.924  0.297E+00  0.293E+00
 -14.914  0.311E+00  0.307E+00
 -14.904  0.326E+00  0.322E+00
 -14.894  0.340E+00  0.335E+00
 -14.884  0.353E+00  0.348E+00
 -14.874  0.365E+00  0.360E+00
 -14.864  0.376E+00  0.371E+00
 -14.854  0.385E+00  0.380E+00
 -14.844  0.392E+00  0.387E+00
 -14.834  0.397E+00  0.392E+00
 -14.824  0.400E+00  0.395E+00
 -14.814  0.402E+00  0.397E+00
 -14.804  0.401E+00  0.396E+00
 -14.794  0.399E+00  0.394E+00
 -14.784  0.396E+00  0.391E+00
 -14.774  0.391E+00  0.386E+00
 -14.764  0.385E+00  0.380E+00
 -14.754  0.378E+00  0.374E+00
 -14.744  0.371E+00  0.367E+00
 -14.734  0.364E+00  0.360E+00
 -14.724  0.357E+00  0.352E+00
 -14.714  0.350E+00  0.345E+00
 -14.704  0.343E+00  0.339E+00
 -14.694  0.337E+00  0.333E+00
 -14.684  0.331E+00  0.328E+00
 -14.674  0.327E+00  0.323E+00
 -14.664  0.323E+00  0.320E+00
 -14.654  0.321E+00  0.317E+00
 -14.644  0.319E+00  0.316E+00
 -14.634  0.319E+00  0.315E+00
 -14.624  0.319E+00  0.316E+00
 -14.614  0.321E+00  0.317E+00
 -14.604  0.323E+00  0.319E+00
 -14.594  0.326E+00  0.322E+00
 -14.584  0.330E+00  0.326E+00
 -14.574  0.334E+00  0.330E+00
 -14.564  0.339E+00  0.335E+00
 -14.554  0.344E+00  0.340E+00
 -14.544  0.349E+00  0.345E+00
 -14.534  0.354E+00  0.350E+00
 -14.524  0.358E+00  0.354E+00
 -14.514  0.363E+00  0.359E+00
 -14.504  0.366E+00  0.362E+00
 -14.494  0.369E+00  0.365E+00
 -14.484  0.371E+00  0.367E+00
 -14.474  0.372E+00  0.368E+00
 -14.464  0.372E+00  0.368E+00
 -14.454  0.370E+00  0.366E+00
 -14.444  0.368E+00  0.364E+00
 -14.434  0.364E+00  0.360E+00
 -14.424  0.360E+00  0.356E+00
 -14.414  0.355E+00  0.351E+00
 -14.404  0.349E+00  0.345E+00
 -14.394  0.342E+00  0.338E+00
 -14.384  0.336E+00  0.332E+00
 -14.374  0.329E+00  0.326E+00
 -14.364  0.323E+00  0.320E+00
 -14.354  0.318E+00  0.314E+00
 -14.344  0.313E+00  0.309E+00
 -14.334  0.309E+00  0.305E+00
 -14.324  0.306E+00  0.302E+00
 -14.314  0.304E+00  0.301E+00
 -14.304  0.303E+00  0.300E+00
 -14.294  0.304E+00  0.300E+00
 -14.284  0.305E+00  0.302E+00
 -14.274  0.307E+00  0.304E+00
 -14.264  0.310E+00  0.307E+00
 -14.254  0.314E+00  0.311E+00
 -14.244  0.318E+00  0.315E+00
 -14.234  0.322E+00  0.319E+00
 -14.224  0.326E+00  0.323E+00
 -14.214  0.330E+00  0.326E+00
 -14.204  0.333E+00  0.329E+00
 -14.194  0.335E+00  0.332E+00
 -14.184  0.337E+00  0.334E+00
 -14.174  0.338E+00  0.334E+00
 -14.164  0.338E+00  0.334E+00
 -14.154  0.337E+00  0.333E+00
 -14.144  0.335E+00  0.331E+00
 -14.134  0.332E+00  0.328E+00
 -14.124  0.329E+00  0.325E+00
 -14.114  0.325E+00  0.321E+00
 -14.104  0.320E+00  0.317E+00
 -14.094  0.316E+00  0.312E+00
 -14.084  0.311E+00  0.308E+00
 -14.074  0.307E+00  0.303E+00
 -14.064  0.303E+00  0.299E+00
 -14.054  0.299E+00  0.296E+00
 -14.044  0.295E+00  0.292E+00
 -14.034  0.293E+00  0.290E+00
 -14.024  0.290E+00  0.287E+00
 -14.014  0.288E+00  0.285E+00
 -14.004  0.286E+00  0.283E+00
 -13.994  0.285E+00  0.282E+00
 -13.984  0.284E+00  0.281E+00
 -13.974  0.282E+00  0.280E+00
 -13.964  0.281E+00  0.279E+00
 -13.954  0.280E+00  0.277E+00
 -13.944  0.279E+00  0.276E+00
 -13.934  0.278E+00  0.275E+00
 -13.924  0.277E+00  0.275E+00
 -13.914  0.277E+00  0.274E+00
 -13.904  0.276E+00  0.273E+00
 -13.894  0.276E+00  0.273E+00
 -13.884  0.277E+00  0.274E+00
 -13.874  0.278E+00  0.275E+00
 -13.864  0.279E+00  0.276E+00
 -13.854  0.281E+00  0.279E+00
 -13.844  0.284E+00  0.282E+00
 -13.834  0.288E+00  0.285E+00
 -13.824  0.292E+00  0.289E+00
 -13.814  0.296E+00  0.293E+00
 -13.804  0.301E+00  0.298E+00
 -13.794  0.305E+00  0.302E+00
 -13.784  0.309E+00  0.306E+00
 -13.774  0.313E+00  0.310E+00
 -13.764  0.316E+00  0.313E+00
 -13.754  0.318E+00  0.315E+00
 -13.744  0.319E+00  0.316E+00
 -13.734  0.319E+00  0.315E+00
 -13.724  0.317E+00  0.314E+00
 -13.714  0.314E+00  0.311E+00
 -13.704  0.311E+00  0.308E+00
 -13.694  0.306E+00  0.303E+00
 -13.684  0.301E+00  0.298E+00
 -13.674  0.295E+00  0.292E+00
 -13.664  0.289E+00  0.286E+00
 -13.654  0.283E+00  0.280E+00
 -13.644  0.277E+00  0.274E+00
 -13.634  0.272E+00  0.269E+00
 -13.624  0.267E+00  0.264E+00
 -13.614  0.264E+00  0.261E+00
 -13.604  0.261E+00  0.259E+00
 -13.594  0.260E+00  0.258E+00
 -13.584  0.260E+00  0.258E+00
 -13.574  0.261E+00  0.259E+00
 -13.564  0.264E+00  0.261E+00
 -13.554  0.267E+00  0.264E+00
 -13.544  0.271E+00  0.269E+00
 -13.534  0.276E+00  0.273E+00
 -13.524  0.281E+00  0.278E+00
 -13.514  0.286E+00  0.284E+00
 -13.504  0.292E+00  0.289E+00
 -13.494  0.297E+00  0.294E+00
 -13.484  0.303E+00  0.300E+00
 -13.474  0.308E+00  0.305E+00
 -13.464  0.312E+00  0.309E+00
 -13.454  0.317E+00  0.314E+00
 -13.444  0.321E+00  0.318E+00
 -13.434  0.325E+00  0.322E+00
 -13.424  0.329E+00  0.326E+00
 -13.414  0.333E+00  0.329E+00
 -13.404  0.336E+00  0.333E+00
 -13.394  0.339E+00  0.336E+00
 -13.384  0.342E+00  0.339E+00
 -13.374  0.345E+00  0.341E+00
 -13.364  0.347E+00  0.343E+00
 -13.354  0.349E+00  0.345E+00
 -13.344  0.351E+00  0.347E+00
 -13.334  0.351E+00  0.347E+00
 -13.324  0.351E+00  0.347E+00
 -13.314  0.350E+00  0.346E+00
 -13.304  0.349E+00  0.345E+00
 -13.294  0.346E+00  0.343E+00
 -13.284  0.343E+00  0.339E+00
 -13.274  0.339E+00  0.336E+00
 -13.264  0.335E+00  0.331E+00
 -13.254  0.330E+00  0.326E+00
 -13.244  0.325E+00  0.321E+00
 -13.234  0.319E+00  0.316E+00
 -13.224  0.314E+00  0.311E+00
 -13.214  0.309E+00  0.306E+00
 -13.204  0.305E+00  0.302E+00
 -13.194  0.301E+00  0.298E+00
 -13.184  0.298E+00  0.295E+00
 -13.174  0.296E+00  0.293E+00
 -13.164  0.295E+00  0.292E+00
 -13.154  0.294E+00  0.291E+00
 -13.144  0.295E+00  0.292E+00
 -13.134  0.296E+00  0.293E+00
 -13.124  0.298E+00  0.295E+00
 -13.114  0.300E+00  0.297E+00
 -13.104  0.303E+00  0.300E+00
 -13.094  0.306E+00  0.303E+00
 -13.084  0.309E+00  0.306E+00
 -13.074  0.312E+00  0.309E+00
 -13.064  0.315E+00  0.312E+00
 -13.054  0.317E+00  0.314E+00
 -13.044  0.320E+00  0.317E+00
 -13.034  0.322E+00  0.319E+00
 -13.024  0.324E+00  0.321E+00
 -13.014  0.326E+00  0.323E+00
 -13.004  0.328E+00  0.324E+00
 -12.994  0.330E+00  0.326E+00
 -12.984  0.331E+00  0.328E+00
 -12.974  0.333E+00  0.330E+00
 -12.964  0.336E+00  0.332E+00
 -12.954  0.338E+00  0.334E+00
 -12.944  0.340E+00  0.337E+00
 -12.934  0.343E+00  0.339E+00
 -12.924  0.346E+00  0.342E+00
 -12.914  0.348E+00  0.345E+00
 -12.904  0.351E+00  0.347E+00
 -12.894  0.353E+00  0.349E+00
 -12.884  0.355E+00  0.351E+00
 -12.874  0.356E+00  0.353E+00
 -12.864  0.357E+00  0.353E+00
 -12.854  0.357E+00  0.354E+00
 -12.844  0.357E+00  0.353E+00
 -12.834  0.356E+00  0.353E+00
 -12.824  0.355E+00  0.351E+00
 -12.814  0.353E+00  0.349E+00
 -12.804  0.351E+00  0.347E+00
 -12.794  0.349E+00  0.345E+00
 -12.784  0.347E+00  0.343E+00
 -12.774  0.345E+00  0.342E+00
 -12.764  0.344E+00  0.340E+00
 -12.754  0.343E+00  0.340E+00
 -12.744  0.343E+00  0.339E+00
 -12.734  0.344E+00  0.340E+00
 -12.724  0.345E+00  0.341E+00
 -12.714  0.346E+00  0.343E+00
 -12.704  0.349E+00  0.345E+00
 -12.694  0.351E+00  0.348E+00
 -12.684  0.354E+00  0.350E+00
 -12.674  0.356E+00  0.353E+00
 -12.664  0.359E+00  0.355E+00
 -12.654  0.360E+00  0.356E+00
 -12.644  0.360E+00  0.357E+00
 -12.634  0.360E+00  0.356E+00
 -12.624  0.358E+00  0.355E+00
 -12.614  0.355E+00  0.351E+00
 -12.604  0.350E+00  0.347E+00
 -12.594  0.344E+00  0.341E+00
 -12.584  0.337E+00  0.334E+00
 -12.574  0.329E+00  0.326E+00
 -12.564  0.319E+00  0.316E+00
 -12.554  0.310E+00  0.307E+00
 -12.544  0.299E+00  0.297E+00
 -12.534  0.289E+00  0.287E+00
 -12.524  0.280E+00  0.277E+00
 -12.514  0.270E+00  0.268E+00
 -12.504  0.262E+00  0.260E+00
 -12.494  0.255E+00  0.253E+00
 -12.484  0.250E+00  0.248E+00
 -12.474  0.247E+00  0.244E+00
 -12.464  0.245E+00  0.243E+00
 -12.454  0.246E+00  0.243E+00
 -12.444  0.249E+00  0.246E+00
 -12.434  0.254E+00  0.251E+00
 -12.424  0.261E+00  0.258E+00
 -12.414  0.270E+00  0.267E+00
 -12.404  0.281E+00  0.278E+00
 -12.394  0.293E+00  0.290E+00
 -12.384  0.307E+00  0.304E+00
 -12.374  0.322E+00  0.319E+00
 -12.364  0.338E+00  0.335E+00
 -12.354  0.354E+00  0.351E+00
 -12.344  0.370E+00  0.366E+00
 -12.334  0.385E+00  0.382E+00
 -12.324  0.400E+00  0.396E+00
 -12.314  0.414E+00  0.410E+00
 -12.304  0.426E+00  0.422E+00
 -12.294  0.436E+00  0.432E+00
 -12.284  0.444E+00  0.440E+00
 -12.274  0.451E+00  0.446E+00
 -12.264  0.455E+00  0.450E+00
 -12.254  0.456E+00  0.452E+00
 -12.244  0.456E+00  0.452E+00
 -12.234  0.453E+00  0.449E+00
 -12.224  0.449E+00  0.445E+00
 -12.214  0.443E+00  0.438E+00
 -12.204  0.435E+00  0.430E+00
 -12.194  0.425E+00  0.421E+00
 -12.184  0.415E+00  0.411E+00
 -12.174  0.403E+00  0.400E+00
 -12.164  0.392E+00  0.388E+00
 -12.154  0.379E+00  0.376E+00
 -12.144  0.367E+00  0.363E+00
 -12.134  0.354E+00  0.351E+00
 -12.124  0.342E+00  0.339E+00
 -12.114  0.330E+00  0.327E+00
 -12.104  0.319E+00  0.316E+00
 -12.094  0.308E+00  0.305E+00
 -12.084  0.299E+00  0.296E+00
 -12.074  0.290E+00  0.287E+00
 -12.064  0.282E+00  0.279E+00
 -12.054  0.275E+00  0.273E+00
 -12.044  0.270E+00  0.267E+00
 -12.034  0.265E+00  0.263E+00
 -12.024  0.262E+00  0.260E+00
 -12.014  0.260E+00  0.258E+00
 -12.004  0.259E+00  0.257E+00
 -11.994  0.260E+00  0.258E+00
 -11.984  0.262E+00  0.259E+00
 -11.974  0.264E+00  0.262E+00
 -11.964  0.268E+00  0.266E+00
 -11.954  0.273E+00  0.271E+00
 -11.944  0.279E+00  0.276E+00
 -11.934  0.285E+00  0.282E+00
 -11.924  0.292E+00  0.289E+00
 -11.914  0.299E+00  0.297E+00
 -11.904  0.307E+00  0.304E+00
 -11.894  0.315E+00  0.312E+00
 -11.884  0.324E+00  0.321E+00
 -11.874  0.332E+00  0.329E+00
 -11.864  0.341E+00  0.338E+00
 -11.854  0.349E+00  0.346E+00
 -11.844  0.357E+00  0.354E+00
 -11.834  0.365E+00  0.362E+00
 -11.824  0.373E+00  0.370E+00
 -11.814  0.381E+00  0.378E+00
 -11.804  0.388E+00  0.385E+00
 -11.794  0.395E+00  0.391E+00
 -11.784  0.401E+00  0.398E+00
 -11.774  0.407E+00  0.403E+00
 -11.764  0.411E+00  0.408E+00
 -11.754  0.415E+00  0.412E+00
 -11.744  0.418E+00  0.415E+00
 -11.734  0.420E+00  0.417E+00
 -11.724  0.421E+00  0.417E+00
 -11.714  0.421E+00  0.417E+00
 -11.704  0.419E+00  0.416E+00
 -11.694  0.417E+00  0.413E+00
 -11.684  0.413E+00  0.409E+00
 -11.674  0.408E+00  0.405E+00
 -11.664  0.403E+00  0.399E+00
 -11.654  0.396E+00  0.393E+00
 -11.644  0.389E+00  0.386E+00
 -11.634  0.382E+00  0.379E+00
 -11.624  0.375E+00  0.371E+00
 -11.614  0.367E+00  0.364E+00
 -11.604  0.360E+00  0.357E+00
 -11.594  0.353E+00  0.350E+00
 -11.584  0.346E+00  0.343E+00
 -11.574  0.341E+00  0.338E+00
 -11.564  0.336E+00  0.333E+00
 -11.554  0.332E+00  0.329E+00
 -11.544  0.329E+00  0.326E+00
 -11.534  0.328E+00  0.325E+00
 -11.524  0.327E+00  0.324E+00
 -11.514  0.327E+00  0.324E+00
 -11.504  0.328E+00  0.325E+00
 -11.494  0.330E+00  0.327E+00
 -11.484  0.333E+00  0.330E+00
 -11.474  0.336E+00  0.333E+00
 -11.464  0.340E+00  0.337E+00
 -11.454  0.344E+00  0.341E+00
 -11.444  0.348E+00  0.345E+00
 -11.434  0.353E+00  0.350E+00
 -11.424  0.357E+00  0.354E+00
 -11.414  0.361E+00  0.358E+00
 -11.404  0.365E+00  0.362E+00
 -11.394  0.368E+00  0.365E+00
 -11.384  0.370E+00  0.367E+00
 -11.374  0.372E+00  0.369E+00
 -11.364  0.372E+00  0.369E+00
 -11.354  0.372E+00  0.369E+00
 -11.344  0.370E+00  0.367E+00
 -11.334  0.367E+00  0.364E+00
 -11.324  0.363E+00  0.361E+00
 -11.314  0.358E+00  0.355E+00
 -11.304  0.352E+00  0.349E+00
 -11.294  0.345E+00  0.343E+00
 -11.284  0.338E+00  0.335E+00
 -11.274  0.330E+00  0.328E+00
 -11.264  0.322E+00  0.320E+00
 -11.254  0.315E+00  0.312E+00
 -11.244  0.308E+00  0.306E+00
 -11.234  0.302E+00  0.300E+00
 -11.224  0.298E+00  0.296E+00
 -11.214  0.295E+00  0.293E+00
 -11.204  0.295E+00  0.292E+00
 -11.194  0.296E+00  0.293E+00
 -11.184  0.299E+00  0.297E+00
 -11.174  0.305E+00  0.302E+00
 -11.164  0.313E+00  0.310E+00
 -11.154  0.323E+00  0.320E+00
 -11.144  0.334E+00  0.332E+00
 -11.134  0.348E+00  0.345E+00
 -11.124  0.363E+00  0.360E+00
 -11.114  0.379E+00  0.376E+00
 -11.104  0.395E+00  0.392E+00
 -11.094  0.412E+00  0.408E+00
 -11.084  0.428E+00  0.425E+00
 -11.074  0.444E+00  0.440E+00
 -11.064  0.459E+00  0.455E+00
 -11.054  0.472E+00  0.468E+00
 -11.044  0.483E+00  0.479E+00
 -11.034  0.492E+00  0.488E+00
 -11.024  0.499E+00  0.495E+00
 -11.014  0.503E+00  0.499E+00
 -11.004  0.504E+00  0.500E+00
 -10.994  0.502E+00  0.498E+00
 -10.984  0.497E+00  0.493E+00
 -10.974  0.490E+00  0.486E+00
 -10.964  0.480E+00  0.476E+00
 -10.954  0.467E+00  0.464E+00
 -10.944  0.453E+00  0.449E+00
 -10.934  0.437E+00  0.433E+00
 -10.924  0.419E+00  0.416E+00
 -10.914  0.401E+00  0.398E+00
 -10.904  0.382E+00  0.379E+00
 -10.894  0.363E+00  0.360E+00
 -10.884  0.344E+00  0.341E+00
 -10.874  0.326E+00  0.323E+00
 -10.864  0.309E+00  0.306E+00
 -10.854  0.293E+00  0.291E+00
 -10.844  0.279E+00  0.277E+00
 -10.834  0.267E+00  0.265E+00
 -10.824  0.257E+00  0.255E+00
 -10.814  0.249E+00  0.247E+00
 -10.804  0.244E+00  0.242E+00
 -10.794  0.242E+00  0.240E+00
 -10.784  0.242E+00  0.240E+00
 -10.774  0.245E+00  0.243E+00
 -10.764  0.251E+00  0.249E+00
 -10.754  0.259E+00  0.257E+00
 -10.744  0.270E+00  0.268E+00
 -10.734  0.283E+00  0.281E+00
 -10.724  0.299E+00  0.296E+00
 -10.714  0.316E+00  0.313E+00
 -10.704  0.334E+00  0.332E+00
 -10.694  0.354E+00  0.351E+00
 -10.684  0.374E+00  0.371E+00
 -10.674  0.395E+00  0.391E+00
 -10.664  0.415E+00  0.411E+00
 -10.654  0.434E+00  0.430E+00
 -10.644  0.452E+00  0.448E+00
 -10.634  0.469E+00  0.465E+00
 -10.624  0.484E+00  0.480E+00
 -10.614  0.497E+00  0.493E+00
 -10.604  0.508E+00  0.503E+00
 -10.594  0.517E+00  0.512E+00
 -10.584  0.523E+00  0.518E+00
 -10.574  0.528E+00  0.522E+00
 -10.564  0.530E+00  0.524E+00
 -10.554  0.531E+00  0.524E+00
 -10.544  0.530E+00  0.523E+00
 -10.534  0.528E+00  0.521E+00
 -10.524  0.525E+00  0.517E+00
 -10.514  0.522E+00  0.514E+00
 -10.504  0.519E+00  0.510E+00
 -10.494  0.516E+00  0.507E+00
 -10.484  0.513E+00  0.504E+00
 -10.474  0.512E+00  0.502E+00
 -10.464  0.511E+00  0.501E+00
 -10.454  0.511E+00  0.501E+00
 -10.444  0.513E+00  0.502E+00
 -10.434  0.515E+00  0.504E+00
 -10.424  0.519E+00  0.507E+00
 -10.414  0.524E+00  0.512E+00
 -10.404  0.530E+00  0.517E+00
 -10.394  0.537E+00  0.523E+00
 -10.384  0.544E+00  0.530E+00
 -10.374  0.552E+00  0.538E+00
 -10.364  0.561E+00  0.547E+00
 -10.354  0.570E+00  0.555E+00
 -10.344  0.579E+00  0.564E+00
 -10.334  0.588E+00  0.573E+00
 -10.324  0.596E+00  0.581E+00
 -10.314  0.604E+00  0.589E+00
 -10.304  0.612E+00  0.596E+00
 -10.294  0.618E+00  0.603E+00
 -10.284  0.624E+00  0.608E+00
 -10.274  0.628E+00  0.613E+00
 -10.264  0.632E+00  0.616E+00
 -10.254  0.634E+00  0.618E+00
 -10.244  0.634E+00  0.618E+00
 -10.234  0.634E+00  0.618E+00
 -10.224  0.632E+00  0.616E+00
 -10.214  0.629E+00  0.614E+00
 -10.204  0.626E+00  0.610E+00
 -10.194  0.622E+00  0.606E+00
 -10.184  0.618E+00  0.602E+00
 -10.174  0.614E+00  0.598E+00
 -10.164  0.610E+00  0.595E+00
 -10.154  0.608E+00  0.592E+00
 -10.144  0.605E+00  0.590E+00
 -10.134  0.604E+00  0.589E+00
 -10.124  0.605E+00  0.589E+00
 -10.114  0.606E+00  0.591E+00
 -10.104  0.609E+00  0.594E+00
 -10.094  0.612E+00  0.597E+00
 -10.084  0.617E+00  0.602E+00
 -10.074  0.623E+00  0.608E+00
 -10.064  0.629E+00  0.614E+00
 -10.054  0.635E+00  0.620E+00
 -10.044  0.642E+00  0.627E+00
 -10.034  0.648E+00  0.633E+00
 -10.024  0.654E+00  0.639E+00
 -10.014  0.660E+00  0.645E+00
 -10.004  0.665E+00  0.650E+00
  -9.994  0.670E+00  0.655E+00
  -9.984  0.675E+00  0.660E+00
  -9.974  0.679E+00  0.664E+00
  -9.964  0.683E+00  0.668E+00
  -9.954  0.686E+00  0.672E+00
  -9.944  0.690E+00  0.675E+00
  -9.934  0.693E+00  0.679E+00
  -9.924  0.697E+00  0.682E+00
  -9.914  0.701E+00  0.686E+00
  -9.904  0.704E+00  0.690E+00
  -9.894  0.707E+00  0.693E+00
  -9.884  0.710E+00  0.696E+00
  -9.874  0.713E+00  0.698E+00
  -9.864  0.715E+00  0.700E+00
  -9.854  0.715E+00  0.701E+00
  -9.844  0.715E+00  0.700E+00
  -9.834  0.713E+00  0.699E+00
  -9.824  0.710E+00  0.695E+00
  -9.814  0.705E+00  0.690E+00
  -9.804  0.698E+00  0.684E+00
  -9.794  0.690E+00  0.675E+00
  -9.784  0.680E+00  0.666E+00
  -9.774  0.669E+00  0.655E+00
  -9.764  0.657E+00  0.643E+00
  -9.754  0.644E+00  0.631E+00
  -9.744  0.632E+00  0.618E+00
  -9.734  0.619E+00  0.606E+00
  -9.724  0.608E+00  0.595E+00
  -9.714  0.598E+00  0.585E+00
  -9.704  0.589E+00  0.576E+00
  -9.694  0.583E+00  0.570E+00
  -9.684  0.579E+00  0.566E+00
  -9.674  0.577E+00  0.565E+00
  -9.664  0.578E+00  0.566E+00
  -9.654  0.582E+00  0.570E+00
  -9.644  0.589E+00  0.577E+00
  -9.634  0.599E+00  0.587E+00
  -9.624  0.611E+00  0.598E+00
  -9.614  0.625E+00  0.612E+00
  -9.604  0.641E+00  0.628E+00
  -9.594  0.658E+00  0.645E+00
  -9.584  0.676E+00  0.663E+00
  -9.574  0.695E+00  0.682E+00
  -9.564  0.713E+00  0.700E+00
  -9.554  0.731E+00  0.718E+00
  -9.544  0.748E+00  0.735E+00
  -9.534  0.764E+00  0.750E+00
  -9.524  0.777E+00  0.764E+00
  -9.514  0.789E+00  0.775E+00
  -9.504  0.797E+00  0.784E+00
  -9.494  0.803E+00  0.790E+00
  -9.484  0.806E+00  0.793E+00
  -9.474  0.806E+00  0.793E+00
  -9.464  0.803E+00  0.790E+00
  -9.454  0.797E+00  0.784E+00
  -9.444  0.788E+00  0.775E+00
  -9.434  0.777E+00  0.764E+00
  -9.424  0.764E+00  0.751E+00
  -9.414  0.749E+00  0.737E+00
  -9.404  0.734E+00  0.722E+00
  -9.394  0.718E+00  0.706E+00
  -9.384  0.702E+00  0.690E+00
  -9.374  0.686E+00  0.675E+00
  -9.364  0.672E+00  0.661E+00
  -9.354  0.659E+00  0.648E+00
  -9.344  0.649E+00  0.637E+00
  -9.334  0.640E+00  0.629E+00
  -9.324  0.635E+00  0.623E+00
  -9.314  0.632E+00  0.620E+00
  -9.304  0.631E+00  0.620E+00
  -9.294  0.633E+00  0.622E+00
  -9.284  0.638E+00  0.627E+00
  -9.274  0.645E+00  0.634E+00
  -9.264  0.654E+00  0.643E+00
  -9.254  0.665E+00  0.654E+00
  -9.244  0.678E+00  0.666E+00
  -9.234  0.691E+00  0.680E+00
  -9.224  0.706E+00  0.694E+00
  -9.214  0.721E+00  0.709E+00
  -9.204  0.736E+00  0.725E+00
  -9.194  0.751E+00  0.740E+00
  -9.184  0.766E+00  0.755E+00
  -9.174  0.780E+00  0.769E+00
  -9.164  0.794E+00  0.782E+00
  -9.154  0.806E+00  0.795E+00
  -9.144  0.816E+00  0.805E+00
  -9.134  0.826E+00  0.815E+00
  -9.124  0.833E+00  0.822E+00
  -9.114  0.839E+00  0.828E+00
  -9.104  0.843E+00  0.832E+00
  -9.094  0.844E+00  0.833E+00
  -9.084  0.844E+00  0.833E+00
  -9.074  0.842E+00  0.831E+00
  -9.064  0.838E+00  0.827E+00
  -9.054  0.832E+00  0.821E+00
  -9.044  0.825E+00  0.814E+00
  -9.034  0.817E+00  0.806E+00
  -9.024  0.809E+00  0.798E+00
  -9.014  0.800E+00  0.789E+00
  -9.004  0.792E+00  0.781E+00
  -8.994  0.784E+00  0.773E+00
  -8.984  0.777E+00  0.766E+00
  -8.974  0.771E+00  0.760E+00
  -8.964  0.767E+00  0.756E+00
  -8.954  0.764E+00  0.753E+00
  -8.944  0.764E+00  0.753E+00
  -8.934  0.764E+00  0.753E+00
  -8.924  0.767E+00  0.756E+00
  -8.914  0.771E+00  0.760E+00
  -8.904  0.776E+00  0.766E+00
  -8.894  0.783E+00  0.772E+00
  -8.884  0.790E+00  0.780E+00
  -8.874  0.799E+00  0.789E+00
  -8.864  0.808E+00  0.798E+00
  -8.854  0.817E+00  0.807E+00
  -8.844  0.826E+00  0.817E+00
  -8.834  0.836E+00  0.827E+00
  -8.824  0.846E+00  0.837E+00
  -8.814  0.857E+00  0.847E+00
  -8.804  0.868E+00  0.858E+00
  -8.794  0.879E+00  0.870E+00
  -8.784  0.891E+00  0.881E+00
  -8.774  0.903E+00  0.894E+00
  -8.764  0.917E+00  0.907E+00
  -8.754  0.931E+00  0.922E+00
  -8.744  0.946E+00  0.936E+00
  -8.734  0.962E+00  0.952E+00
  -8.724  0.978E+00  0.968E+00
  -8.714  0.995E+00  0.985E+00
  -8.704  0.101E+01  0.100E+01
  -8.694  0.103E+01  0.102E+01
  -8.684  0.105E+01  0.103E+01
  -8.674  0.106E+01  0.105E+01
  -8.664  0.107E+01  0.106E+01
  -8.654  0.109E+01  0.108E+01
  -8.644  0.110E+01  0.109E+01
  -8.634  0.110E+01  0.109E+01
  -8.624  0.111E+01  0.110E+01
  -8.614  0.111E+01  0.110E+01
  -8.604  0.111E+01  0.110E+01
  -8.594  0.110E+01  0.109E+01
  -8.584  0.109E+01  0.108E+01
  -8.574  0.108E+01  0.107E+01
  -8.564  0.107E+01  0.106E+01
  -8.554  0.105E+01  0.104E+01
  -8.544  0.103E+01  0.102E+01
  -8.534  0.101E+01  0.997E+00
  -8.524  0.984E+00  0.974E+00
  -8.514  0.960E+00  0.950E+00
  -8.504  0.935E+00  0.926E+00
  -8.494  0.911E+00  0.901E+00
  -8.484  0.887E+00  0.878E+00
  -8.474  0.865E+00  0.857E+00
  -8.464  0.845E+00  0.837E+00
  -8.454  0.827E+00  0.819E+00
  -8.444  0.812E+00  0.804E+00
  -8.434  0.800E+00  0.792E+00
  -8.424  0.791E+00  0.784E+00
  -8.414  0.785E+00  0.778E+00
  -8.404  0.783E+00  0.775E+00
  -8.394  0.783E+00  0.775E+00
  -8.384  0.785E+00  0.778E+00
  -8.374  0.790E+00  0.783E+00
  -8.364  0.797E+00  0.789E+00
  -8.354  0.804E+00  0.797E+00
  -8.344  0.813E+00  0.805E+00
  -8.334  0.821E+00  0.813E+00
  -8.324  0.829E+00  0.821E+00
  -8.314  0.837E+00  0.828E+00
  -8.304  0.843E+00  0.834E+00
  -8.294  0.847E+00  0.839E+00
  -8.284  0.850E+00  0.841E+00
  -8.274  0.851E+00  0.842E+00
  -8.264  0.849E+00  0.841E+00
  -8.254  0.846E+00  0.838E+00
  -8.244  0.842E+00  0.833E+00
  -8.234  0.836E+00  0.827E+00
  -8.224  0.829E+00  0.820E+00
  -8.214  0.821E+00  0.812E+00
  -8.204  0.812E+00  0.804E+00
  -8.194  0.804E+00  0.795E+00
  -8.184  0.795E+00  0.787E+00
  -8.174  0.786E+00  0.778E+00
  -8.164  0.778E+00  0.770E+00
  -8.154  0.770E+00  0.762E+00
  -8.144  0.762E+00  0.755E+00
  -8.134  0.755E+00  0.748E+00
  -8.124  0.748E+00  0.741E+00
  -8.114  0.741E+00  0.734E+00
  -8.104  0.734E+00  0.727E+00
  -8.094  0.728E+00  0.721E+00
  -8.084  0.721E+00  0.714E+00
  -8.074  0.714E+00  0.708E+00
  -8.064  0.708E+00  0.701E+00
  -8.054  0.702E+00  0.695E+00
  -8.044  0.696E+00  0.690E+00
  -8.034  0.691E+00  0.685E+00
  -8.024  0.687E+00  0.680E+00
  -8.014  0.683E+00  0.677E+00
  -8.004  0.680E+00  0.674E+00
  -7.994  0.679E+00  0.673E+00
  -7.984  0.679E+00  0.673E+00
  -7.974  0.680E+00  0.673E+00
  -7.964  0.681E+00  0.675E+00
  -7.954  0.684E+00  0.678E+00
  -7.944  0.687E+00  0.681E+00
  -7.934  0.691E+00  0.684E+00
  -7.924  0.694E+00  0.688E+00
  -7.914  0.698E+00  0.691E+00
  -7.904  0.700E+00  0.694E+00
  -7.894  0.702E+00  0.696E+00
  -7.884  0.703E+00  0.697E+00
  -7.874  0.703E+00  0.696E+00
  -7.864  0.701E+00  0.695E+00
  -7.854  0.698E+00  0.691E+00
  -7.844  0.694E+00  0.687E+00
  -7.834  0.688E+00  0.681E+00
  -7.824  0.681E+00  0.674E+00
  -7.814  0.673E+00  0.667E+00
  -7.804  0.665E+00  0.659E+00
  -7.794  0.657E+00  0.650E+00
  -7.784  0.648E+00  0.642E+00
  -7.774  0.641E+00  0.634E+00
  -7.764  0.634E+00  0.628E+00
  -7.754  0.628E+00  0.622E+00
  -7.744  0.623E+00  0.618E+00
  -7.734  0.621E+00  0.615E+00
  -7.724  0.619E+00  0.614E+00
  -7.714  0.620E+00  0.615E+00
  -7.704  0.622E+00  0.617E+00
  -7.694  0.626E+00  0.621E+00
  -7.684  0.632E+00  0.626E+00
  -7.674  0.638E+00  0.633E+00
  -7.664  0.645E+00  0.640E+00
  -7.654  0.653E+00  0.648E+00
  -7.644  0.661E+00  0.656E+00
  -7.634  0.669E+00  0.663E+00
  -7.624  0.675E+00  0.670E+00
  -7.614  0.681E+00  0.676E+00
  -7.604  0.686E+00  0.680E+00
  -7.594  0.689E+00  0.683E+00
  -7.584  0.690E+00  0.684E+00
  -7.574  0.689E+00  0.684E+00
  -7.564  0.687E+00  0.681E+00
  -7.554  0.682E+00  0.677E+00
  -7.544  0.677E+00  0.671E+00
  -7.534  0.669E+00  0.664E+00
  -7.524  0.661E+00  0.656E+00
  -7.514  0.652E+00  0.647E+00
  -7.504  0.643E+00  0.637E+00
  -7.494  0.633E+00  0.628E+00
  -7.484  0.624E+00  0.619E+00
  -7.474  0.616E+00  0.610E+00
  -7.464  0.608E+00  0.603E+00
  -7.454  0.602E+00  0.597E+00
  -7.444  0.597E+00  0.591E+00
  -7.434  0.593E+00  0.588E+00
  -7.424  0.591E+00  0.585E+00
  -7.414  0.590E+00  0.585E+00
  -7.404  0.590E+00  0.585E+00
  -7.394  0.592E+00  0.586E+00
  -7.384  0.594E+00  0.589E+00
  -7.374  0.597E+00  0.592E+00
  -7.364  0.600E+00  0.595E+00
  -7.354  0.604E+00  0.599E+00
  -7.344  0.607E+00  0.602E+00
  -7.334  0.610E+00  0.605E+00
  -7.324  0.612E+00  0.607E+00
  -7.314  0.613E+00  0.608E+00
  -7.304  0.613E+00  0.608E+00
  -7.294  0.612E+00  0.607E+00
  -7.284  0.610E+00  0.605E+00
  -7.274  0.606E+00  0.602E+00
  -7.264  0.602E+00  0.597E+00
  -7.254  0.597E+00  0.592E+00
  -7.244  0.591E+00  0.586E+00
  -7.234  0.584E+00  0.580E+00
  -7.224  0.578E+00  0.573E+00
  -7.214  0.571E+00  0.567E+00
  -7.204  0.565E+00  0.561E+00
  -7.194  0.559E+00  0.555E+00
  -7.184  0.555E+00  0.551E+00
  -7.174  0.551E+00  0.547E+00
  -7.164  0.549E+00  0.545E+00
  -7.154  0.548E+00  0.544E+00
  -7.144  0.549E+00  0.545E+00
  -7.134  0.551E+00  0.547E+00
  -7.124  0.555E+00  0.551E+00
  -7.114  0.561E+00  0.557E+00
  -7.104  0.567E+00  0.563E+00
  -7.094  0.576E+00  0.571E+00
  -7.084  0.584E+00  0.580E+00
  -7.074  0.594E+00  0.590E+00
  -7.064  0.604E+00  0.600E+00
  -7.054  0.614E+00  0.609E+00
  -7.044  0.623E+00  0.619E+00
  -7.034  0.632E+00  0.627E+00
  -7.024  0.639E+00  0.635E+00
  -7.014  0.645E+00  0.641E+00
  -7.004  0.649E+00  0.645E+00
  -6.994  0.652E+00  0.647E+00
  -6.984  0.652E+00  0.648E+00
  -6.974  0.651E+00  0.646E+00
  -6.964  0.647E+00  0.643E+00
  -6.954  0.642E+00  0.637E+00
  -6.944  0.634E+00  0.630E+00
  -6.934  0.625E+00  0.621E+00
  -6.924  0.615E+00  0.611E+00
  -6.914  0.603E+00  0.599E+00
  -6.904  0.591E+00  0.587E+00
  -6.894  0.579E+00  0.575E+00
  -6.884  0.566E+00  0.562E+00
  -6.874  0.554E+00  0.550E+00
  -6.864  0.542E+00  0.538E+00
  -6.854  0.531E+00  0.527E+00
  -6.844  0.521E+00  0.517E+00
  -6.834  0.512E+00  0.508E+00
  -6.824  0.505E+00  0.501E+00
  -6.814  0.499E+00  0.495E+00
  -6.804  0.494E+00  0.491E+00
  -6.794  0.492E+00  0.488E+00
  -6.784  0.491E+00  0.487E+00
  -6.774  0.491E+00  0.488E+00
  -6.764  0.493E+00  0.490E+00
  -6.754  0.496E+00  0.493E+00
  -6.744  0.501E+00  0.498E+00
  -6.734  0.507E+00  0.503E+00
  -6.724  0.513E+00  0.510E+00
  -6.714  0.520E+00  0.517E+00
  -6.704  0.528E+00  0.525E+00
  -6.694  0.536E+00  0.533E+00
  -6.684  0.544E+00  0.541E+00
  -6.674  0.552E+00  0.549E+00
  -6.664  0.560E+00  0.556E+00
  -6.654  0.566E+00  0.563E+00
  -6.644  0.573E+00  0.569E+00
  -6.634  0.578E+00  0.575E+00
  -6.624  0.582E+00  0.579E+00
  -6.614  0.585E+00  0.582E+00
  -6.604  0.588E+00  0.584E+00
  -6.594  0.589E+00  0.586E+00
  -6.584  0.589E+00  0.586E+00
  -6.574  0.588E+00  0.585E+00
  -6.564  0.587E+00  0.584E+00
  -6.554  0.584E+00  0.581E+00
  -6.544  0.581E+00  0.578E+00
  -6.534  0.578E+00  0.575E+00
  -6.524  0.574E+00  0.570E+00
  -6.514  0.569E+00  0.566E+00
  -6.504  0.564E+00  0.561E+00
  -6.494  0.559E+00  0.556E+00
  -6.484  0.554E+00  0.551E+00
  -6.474  0.549E+00  0.546E+00
  -6.464  0.544E+00  0.541E+00
  -6.454  0.539E+00  0.536E+00
  -6.444  0.534E+00  0.531E+00
  -6.434  0.530E+00  0.527E+00
  -6.424  0.527E+00  0.524E+00
  -6.414  0.525E+00  0.522E+00
  -6.404  0.523E+00  0.520E+00
  -6.394  0.523E+00  0.520E+00
  -6.384  0.524E+00  0.521E+00
  -6.374  0.526E+00  0.523E+00
  -6.364  0.529E+00  0.526E+00
  -6.354  0.533E+00  0.530E+00
  -6.344  0.538E+00  0.535E+00
  -6.334  0.544E+00  0.541E+00
  -6.324  0.550E+00  0.547E+00
  -6.314  0.556E+00  0.553E+00
  -6.304  0.561E+00  0.558E+00
  -6.294  0.565E+00  0.562E+00
  -6.284  0.568E+00  0.565E+00
  -6.274  0.570E+00  0.567E+00
  -6.264  0.569E+00  0.566E+00
  -6.254  0.567E+00  0.564E+00
  -6.244  0.562E+00  0.559E+00
  -6.234  0.555E+00  0.552E+00
  -6.224  0.546E+00  0.544E+00
  -6.214  0.536E+00  0.533E+00
  -6.204  0.524E+00  0.521E+00
  -6.194  0.511E+00  0.508E+00
  -6.184  0.497E+00  0.494E+00
  -6.174  0.483E+00  0.481E+00
  -6.164  0.470E+00  0.468E+00
  -6.154  0.458E+00  0.456E+00
  -6.144  0.448E+00  0.446E+00
  -6.134  0.439E+00  0.437E+00
  -6.124  0.433E+00  0.431E+00
  -6.114  0.430E+00  0.428E+00
  -6.104  0.429E+00  0.427E+00
  -6.094  0.431E+00  0.429E+00
  -6.084  0.436E+00  0.434E+00
  -6.074  0.444E+00  0.442E+00
  -6.064  0.454E+00  0.452E+00
  -6.054  0.467E+00  0.465E+00
  -6.044  0.481E+00  0.479E+00
  -6.034  0.498E+00  0.495E+00
  -6.024  0.515E+00  0.513E+00
  -6.014  0.533E+00  0.530E+00
  -6.004  0.551E+00  0.548E+00
  -5.994  0.569E+00  0.566E+00
  -5.984  0.585E+00  0.583E+00
  -5.974  0.600E+00  0.598E+00
  -5.964  0.614E+00  0.611E+00
  -5.954  0.624E+00  0.621E+00
  -5.944  0.632E+00  0.629E+00
  -5.934  0.637E+00  0.634E+00
  -5.924  0.639E+00  0.636E+00
  -5.914  0.637E+00  0.634E+00
  -5.904  0.632E+00  0.629E+00
  -5.894  0.625E+00  0.622E+00
  -5.884  0.614E+00  0.611E+00
  -5.874  0.601E+00  0.598E+00
  -5.864  0.586E+00  0.583E+00
  -5.854  0.569E+00  0.567E+00
  -5.844  0.552E+00  0.549E+00
  -5.834  0.535E+00  0.532E+00
  -5.824  0.517E+00  0.515E+00
  -5.814  0.501E+00  0.499E+00
  -5.804  0.486E+00  0.484E+00
  -5.794  0.473E+00  0.471E+00
  -5.784  0.463E+00  0.460E+00
  -5.774  0.454E+00  0.452E+00
  -5.764  0.448E+00  0.446E+00
  -5.754  0.444E+00  0.442E+00
  -5.744  0.442E+00  0.440E+00
  -5.734  0.442E+00  0.440E+00
  -5.724  0.444E+00  0.442E+00
  -5.714  0.447E+00  0.446E+00
  -5.704  0.452E+00  0.450E+00
  -5.694  0.457E+00  0.455E+00
  -5.684  0.463E+00  0.461E+00
  -5.674  0.468E+00  0.466E+00
  -5.664  0.473E+00  0.471E+00
  -5.654  0.478E+00  0.476E+00
  -5.644  0.482E+00  0.480E+00
  -5.634  0.486E+00  0.484E+00
  -5.624  0.488E+00  0.487E+00
  -5.614  0.490E+00  0.488E+00
  -5.604  0.492E+00  0.490E+00
  -5.594  0.492E+00  0.490E+00
  -5.584  0.493E+00  0.491E+00
  -5.574  0.492E+00  0.491E+00
  -5.564  0.492E+00  0.490E+00
  -5.554  0.492E+00  0.491E+00
  -5.544  0.493E+00  0.491E+00
  -5.534  0.494E+00  0.492E+00
  -5.524  0.495E+00  0.493E+00
  -5.514  0.498E+00  0.496E+00
  -5.504  0.501E+00  0.499E+00
  -5.494  0.505E+00  0.503E+00
  -5.484  0.510E+00  0.508E+00
  -5.474  0.516E+00  0.514E+00
  -5.464  0.522E+00  0.520E+00
  -5.454  0.529E+00  0.527E+00
  -5.444  0.537E+00  0.535E+00
  -5.434  0.544E+00  0.542E+00
  -5.424  0.552E+00  0.550E+00
  -5.414  0.559E+00  0.557E+00
  -5.404  0.566E+00  0.564E+00
  -5.394  0.572E+00  0.570E+00
  -5.384  0.577E+00  0.575E+00
  -5.374  0.581E+00  0.579E+00
  -5.364  0.584E+00  0.582E+00
  -5.354  0.585E+00  0.583E+00
  -5.344  0.586E+00  0.583E+00
  -5.334  0.584E+00  0.582E+00
  -5.324  0.582E+00  0.580E+00
  -5.314  0.578E+00  0.576E+00
  -5.304  0.573E+00  0.571E+00
  -5.294  0.567E+00  0.564E+00
  -5.284  0.559E+00  0.557E+00
  -5.274  0.551E+00  0.549E+00
  -5.264  0.542E+00  0.540E+00
  -5.254  0.533E+00  0.531E+00
  -5.244  0.523E+00  0.521E+00
  -5.234  0.513E+00  0.511E+00
  -5.224  0.502E+00  0.501E+00
  -5.214  0.492E+00  0.491E+00
  -5.204  0.483E+00  0.481E+00
  -5.194  0.473E+00  0.472E+00
  -5.184  0.465E+00  0.463E+00
  -5.174  0.457E+00  0.455E+00
  -5.164  0.450E+00  0.448E+00
  -5.154  0.443E+00  0.442E+00
  -5.144  0.438E+00  0.437E+00
  -5.134  0.434E+00  0.432E+00
  -5.124  0.431E+00  0.429E+00
  -5.114  0.429E+00  0.427E+00
  -5.104  0.428E+00  0.427E+00
  -5.094  0.429E+00  0.427E+00
  -5.084  0.430E+00  0.429E+00
  -5.074  0.433E+00  0.432E+00
  -5.064  0.437E+00  0.436E+00
  -5.054  0.442E+00  0.441E+00
  -5.044  0.449E+00  0.447E+00
  -5.034  0.456E+00  0.454E+00
  -5.024  0.464E+00  0.463E+00
  -5.014  0.474E+00  0.472E+00
  -5.004  0.484E+00  0.483E+00
  -4.994  0.495E+00  0.494E+00
  -4.984  0.507E+00  0.505E+00
  -4.974  0.519E+00  0.517E+00
  -4.964  0.531E+00  0.530E+00
  -4.954  0.544E+00  0.542E+00
  -4.944  0.556E+00  0.554E+00
  -4.934  0.568E+00  0.566E+00
  -4.924  0.579E+00  0.577E+00
  -4.914  0.589E+00  0.587E+00
  -4.904  0.598E+00  0.596E+00
  -4.894  0.606E+00  0.603E+00
  -4.884  0.612E+00  0.609E+00
  -4.874  0.616E+00  0.614E+00
  -4.864  0.618E+00  0.616E+00
  -4.854  0.619E+00  0.617E+00
  -4.844  0.618E+00  0.615E+00
  -4.834  0.614E+00  0.612E+00
  -4.824  0.610E+00  0.607E+00
  -4.814  0.603E+00  0.601E+00
  -4.804  0.595E+00  0.593E+00
  -4.794  0.585E+00  0.583E+00
  -4.784  0.574E+00  0.572E+00
  -4.774  0.562E+00  0.561E+00
  -4.764  0.550E+00  0.548E+00
  -4.754  0.536E+00  0.535E+00
  -4.744  0.523E+00  0.521E+00
  -4.734  0.509E+00  0.507E+00
  -4.724  0.494E+00  0.493E+00
  -4.714  0.480E+00  0.479E+00
  -4.704  0.466E+00  0.465E+00
  -4.694  0.453E+00  0.451E+00
  -4.684  0.440E+00  0.438E+00
  -4.674  0.427E+00  0.426E+00
  -4.664  0.415E+00  0.414E+00
  -4.654  0.404E+00  0.403E+00
  -4.644  0.394E+00  0.393E+00
  -4.634  0.385E+00  0.384E+00
  -4.624  0.377E+00  0.376E+00
  -4.614  0.371E+00  0.369E+00
  -4.604  0.365E+00  0.364E+00
  -4.594  0.360E+00  0.359E+00
  -4.584  0.357E+00  0.356E+00
  -4.574  0.355E+00  0.354E+00
  -4.564  0.354E+00  0.353E+00
  -4.554  0.354E+00  0.353E+00
  -4.544  0.355E+00  0.354E+00
  -4.534  0.358E+00  0.357E+00
  -4.524  0.362E+00  0.361E+00
  -4.514  0.368E+00  0.367E+00
  -4.504  0.375E+00  0.374E+00
  -4.494  0.383E+00  0.382E+00
  -4.484  0.394E+00  0.392E+00
  -4.474  0.405E+00  0.404E+00
  -4.464  0.418E+00  0.417E+00
  -4.454  0.433E+00  0.432E+00
  -4.444  0.449E+00  0.448E+00
  -4.434  0.466E+00  0.465E+00
  -4.424  0.484E+00  0.483E+00
  -4.414  0.503E+00  0.501E+00
  -4.404  0.522E+00  0.520E+00
  -4.394  0.540E+00  0.538E+00
  -4.384  0.558E+00  0.556E+00
  -4.374  0.574E+00  0.572E+00
  -4.364  0.588E+00  0.586E+00
  -4.354  0.600E+00  0.598E+00
  -4.344  0.608E+00  0.606E+00
  -4.334  0.614E+00  0.612E+00
  -4.324  0.615E+00  0.613E+00
  -4.314  0.612E+00  0.610E+00
  -4.304  0.605E+00  0.603E+00
  -4.294  0.594E+00  0.592E+00
  -4.284  0.579E+00  0.577E+00
  -4.274  0.560E+00  0.558E+00
  -4.264  0.537E+00  0.535E+00
  -4.254  0.512E+00  0.510E+00
  -4.244  0.484E+00  0.483E+00
  -4.234  0.455E+00  0.453E+00
  -4.224  0.424E+00  0.423E+00
  -4.214  0.393E+00  0.392E+00
  -4.204  0.362E+00  0.361E+00
  -4.194  0.333E+00  0.332E+00
  -4.184  0.304E+00  0.303E+00
  -4.174  0.277E+00  0.276E+00
  -4.164  0.253E+00  0.252E+00
  -4.154  0.231E+00  0.230E+00
  -4.144  0.211E+00  0.211E+00
  -4.134  0.194E+00  0.194E+00
  -4.124  0.181E+00  0.180E+00
  -4.114  0.169E+00  0.169E+00
  -4.104  0.161E+00  0.160E+00
  -4.094  0.155E+00  0.154E+00
  -4.084  0.151E+00  0.151E+00
  -4.074  0.150E+00  0.149E+00
  -4.064  0.151E+00  0.150E+00
  -4.054  0.153E+00  0.153E+00
  -4.044  0.158E+00  0.157E+00
  -4.034  0.163E+00  0.163E+00
  -4.024  0.171E+00  0.170E+00
  -4.014  0.179E+00  0.179E+00
  -4.004  0.189E+00  0.188E+00
  -3.994  0.200E+00  0.199E+00
  -3.984  0.211E+00  0.211E+00
  -3.974  0.224E+00  0.223E+00
  -3.964  0.237E+00  0.236E+00
  -3.954  0.250E+00  0.249E+00
  -3.944  0.264E+00  0.263E+00
  -3.934  0.278E+00  0.277E+00
  -3.924  0.291E+00  0.290E+00
  -3.914  0.304E+00  0.303E+00
  -3.904  0.317E+00  0.316E+00
  -3.894  0.329E+00  0.327E+00
  -3.884  0.339E+00  0.338E+00
  -3.874  0.348E+00  0.347E+00
  -3.864  0.355E+00  0.354E+00
  -3.854  0.360E+00  0.359E+00
  -3.844  0.363E+00  0.362E+00
  -3.834  0.364E+00  0.362E+00
  -3.824  0.362E+00  0.360E+00
  -3.814  0.357E+00  0.356E+00
  -3.804  0.351E+00  0.349E+00
  -3.794  0.341E+00  0.340E+00
  -3.784  0.330E+00  0.329E+00
  -3.774  0.317E+00  0.316E+00
  -3.764  0.302E+00  0.301E+00
  -3.754  0.286E+00  0.285E+00
  -3.744  0.269E+00  0.268E+00
  -3.734  0.252E+00  0.251E+00
  -3.724  0.234E+00  0.233E+00
  -3.714  0.217E+00  0.216E+00
  -3.704  0.201E+00  0.200E+00
  -3.694  0.185E+00  0.184E+00
  -3.684  0.171E+00  0.170E+00
  -3.674  0.158E+00  0.158E+00
  -3.664  0.147E+00  0.146E+00
  -3.654  0.137E+00  0.137E+00
  -3.644  0.129E+00  0.129E+00
  -3.634  0.123E+00  0.122E+00
  -3.624  0.118E+00  0.117E+00
  -3.614  0.114E+00  0.114E+00
  -3.604  0.112E+00  0.111E+00
  -3.594  0.111E+00  0.110E+00
  -3.584  0.110E+00  0.110E+00
  -3.574  0.111E+00  0.110E+00
  -3.564  0.112E+00  0.111E+00
  -3.554  0.113E+00  0.113E+00
  -3.544  0.115E+00  0.115E+00
  -3.534  0.117E+00  0.117E+00
  -3.524  0.120E+00  0.119E+00
  -3.514  0.123E+00  0.122E+00
  -3.504  0.126E+00  0.125E+00
  -3.494  0.129E+00  0.129E+00
  -3.484  0.133E+00  0.132E+00
  -3.474  0.137E+00  0.136E+00
  -3.464  0.141E+00  0.141E+00
  -3.454  0.146E+00  0.145E+00
  -3.444  0.151E+00  0.150E+00
  -3.434  0.156E+00  0.156E+00
  -3.424  0.162E+00  0.162E+00
  -3.414  0.168E+00  0.168E+00
  -3.404  0.175E+00  0.174E+00
  -3.394  0.181E+00  0.180E+00
  -3.384  0.188E+00  0.187E+00
  -3.374  0.194E+00  0.193E+00
  -3.364  0.200E+00  0.199E+00
  -3.354  0.206E+00  0.205E+00
  -3.344  0.211E+00  0.210E+00
  -3.334  0.215E+00  0.214E+00
  -3.324  0.218E+00  0.217E+00
  -3.314  0.221E+00  0.220E+00
  -3.304  0.222E+00  0.221E+00
  -3.294  0.222E+00  0.221E+00
  -3.284  0.220E+00  0.219E+00
  -3.274  0.217E+00  0.216E+00
  -3.264  0.213E+00  0.212E+00
  -3.254  0.207E+00  0.207E+00
  -3.244  0.201E+00  0.200E+00
  -3.234  0.192E+00  0.192E+00
  -3.224  0.183E+00  0.183E+00
  -3.214  0.173E+00  0.173E+00
  -3.204  0.163E+00  0.162E+00
  -3.194  0.152E+00  0.151E+00
  -3.184  0.141E+00  0.141E+00
  -3.174  0.130E+00  0.130E+00
  -3.164  0.120E+00  0.120E+00
  -3.154  0.110E+00  0.110E+00
  -3.144  0.101E+00  0.101E+00
  -3.134  0.932E-01  0.928E-01
  -3.124  0.862E-01  0.858E-01
  -3.114  0.803E-01  0.800E-01
  -3.104  0.757E-01  0.754E-01
  -3.094  0.723E-01  0.720E-01
  -3.084  0.701E-01  0.698E-01
  -3.074  0.690E-01  0.687E-01
  -3.064  0.689E-01  0.687E-01
  -3.054  0.697E-01  0.695E-01
  -3.044  0.713E-01  0.710E-01
  -3.034  0.734E-01  0.731E-01
  -3.024  0.760E-01  0.757E-01
  -3.014  0.788E-01  0.785E-01
  -3.004  0.818E-01  0.815E-01
  -2.994  0.848E-01  0.844E-01
  -2.984  0.877E-01  0.873E-01
  -2.974  0.904E-01  0.900E-01
  -2.964  0.929E-01  0.926E-01
  -2.954  0.952E-01  0.948E-01
  -2.944  0.973E-01  0.969E-01
  -2.934  0.992E-01  0.988E-01
  -2.924  0.101E+00  0.100E+00
  -2.914  0.103E+00  0.102E+00
  -2.904  0.104E+00  0.104E+00
  -2.894  0.106E+00  0.105E+00
  -2.884  0.107E+00  0.107E+00
  -2.874  0.109E+00  0.109E+00
  -2.864  0.111E+00  0.110E+00
  -2.854  0.113E+00  0.112E+00
  -2.844  0.115E+00  0.114E+00
  -2.834  0.117E+00  0.116E+00
  -2.824  0.118E+00  0.118E+00
  -2.814  0.120E+00  0.120E+00
  -2.804  0.121E+00  0.121E+00
  -2.794  0.122E+00  0.122E+00
  -2.784  0.123E+00  0.122E+00
  -2.774  0.123E+00  0.123E+00
  -2.764  0.123E+00  0.122E+00
  -2.754  0.122E+00  0.121E+00
  -2.744  0.120E+00  0.119E+00
  -2.734  0.118E+00  0.117E+00
  -2.724  0.115E+00  0.114E+00
  -2.714  0.112E+00  0.111E+00
  -2.704  0.108E+00  0.107E+00
  -2.694  0.104E+00  0.103E+00
  -2.684  0.998E-01  0.993E-01
  -2.674  0.955E-01  0.950E-01
  -2.664  0.912E-01  0.908E-01
  -2.654  0.870E-01  0.865E-01
  -2.644  0.828E-01  0.824E-01
  -2.634  0.788E-01  0.784E-01
  -2.624  0.750E-01  0.746E-01
  -2.614  0.714E-01  0.710E-01
  -2.604  0.679E-01  0.676E-01
  -2.594  0.647E-01  0.643E-01
  -2.584  0.615E-01  0.612E-01
  -2.574  0.585E-01  0.583E-01
  -2.564  0.556E-01  0.554E-01
  -2.554  0.528E-01  0.526E-01
  -2.544  0.501E-01  0.499E-01
  -2.534  0.474E-01  0.472E-01
  -2.524  0.449E-01  0.447E-01
  -2.514  0.424E-01  0.422E-01
  -2.504  0.401E-01  0.399E-01
  -2.494  0.380E-01  0.378E-01
  -2.484  0.361E-01  0.360E-01
  -2.474  0.346E-01  0.344E-01
  -2.464  0.334E-01  0.332E-01
  -2.454  0.326E-01  0.325E-01
  -2.444  0.324E-01  0.322E-01
  -2.434  0.326E-01  0.324E-01
  -2.424  0.334E-01  0.332E-01
  -2.414  0.348E-01  0.346E-01
  -2.404  0.367E-01  0.365E-01
  -2.394  0.391E-01  0.389E-01
  -2.384  0.421E-01  0.418E-01
  -2.374  0.454E-01  0.452E-01
  -2.364  0.491E-01  0.488E-01
  -2.354  0.530E-01  0.527E-01
  -2.344  0.570E-01  0.566E-01
  -2.334  0.609E-01  0.606E-01
  -2.324  0.647E-01  0.643E-01
  -2.314  0.682E-01  0.678E-01
  -2.304  0.712E-01  0.708E-01
  -2.294  0.737E-01  0.733E-01
  -2.284  0.756E-01  0.752E-01
  -2.274  0.767E-01  0.763E-01
  -2.264  0.771E-01  0.767E-01
  -2.254  0.767E-01  0.763E-01
  -2.244  0.755E-01  0.750E-01
  -2.234  0.735E-01  0.731E-01
  -2.224  0.708E-01  0.704E-01
  -2.214  0.675E-01  0.671E-01
  -2.204  0.636E-01  0.633E-01
  -2.194  0.594E-01  0.590E-01
  -2.184  0.548E-01  0.545E-01
  -2.174  0.500E-01  0.498E-01
  -2.164  0.452E-01  0.450E-01
  -2.154  0.404E-01  0.402E-01
  -2.144  0.357E-01  0.355E-01
  -2.134  0.312E-01  0.311E-01
  -2.124  0.270E-01  0.269E-01
  -2.114  0.231E-01  0.230E-01
  -2.104  0.196E-01  0.195E-01
  -2.094  0.164E-01  0.164E-01
  -2.084  0.137E-01  0.136E-01
  -2.074  0.112E-01  0.112E-01
  -2.064  0.916E-02  0.911E-02
  -2.054  0.742E-02  0.738E-02
  -2.044  0.599E-02  0.596E-02
  -2.034  0.484E-02  0.482E-02
  -2.024  0.395E-02  0.393E-02
  -2.014  0.329E-02  0.327E-02
  -2.004  0.284E-02  0.282E-02
  -1.994  0.257E-02  0.256E-02
  -1.984  0.248E-02  0.247E-02
  -1.974  0.256E-02  0.254E-02
  -1.964  0.278E-02  0.277E-02
  -1.954  0.316E-02  0.314E-02
  -1.944  0.369E-02  0.366E-02
  -1.934  0.436E-02  0.433E-02
  -1.924  0.517E-02  0.513E-02
  -1.914  0.613E-02  0.608E-02
  -1.904  0.722E-02  0.717E-02
  -1.894  0.844E-02  0.838E-02
  -1.884  0.978E-02  0.971E-02
  -1.874  0.112E-01  0.111E-01
  -1.864  0.127E-01  0.127E-01
  -1.854  0.143E-01  0.142E-01
  -1.844  0.159E-01  0.158E-01
  -1.834  0.175E-01  0.174E-01
  -1.824  0.191E-01  0.190E-01
  -1.814  0.206E-01  0.204E-01
  -1.804  0.219E-01  0.218E-01
  -1.794  0.231E-01  0.229E-01
  -1.784  0.241E-01  0.239E-01
  -1.774  0.248E-01  0.247E-01
  -1.764  0.253E-01  0.252E-01
  -1.754  0.256E-01  0.254E-01
  -1.744  0.255E-01  0.254E-01
  -1.734  0.252E-01  0.251E-01
  -1.724  0.247E-01  0.245E-01
  -1.714  0.238E-01  0.237E-01
  -1.704  0.228E-01  0.226E-01
  -1.694  0.216E-01  0.214E-01
  -1.684  0.202E-01  0.200E-01
  -1.674  0.187E-01  0.186E-01
  -1.664  0.171E-01  0.170E-01
  -1.654  0.155E-01  0.154E-01
  -1.644  0.139E-01  0.138E-01
  -1.634  0.124E-01  0.123E-01
  -1.624  0.109E-01  0.108E-01
  -1.614  0.944E-02  0.937E-02
  -1.604  0.814E-02  0.808E-02
  -1.594  0.696E-02  0.691E-02
  -1.584  0.592E-02  0.588E-02
  -1.574  0.503E-02  0.499E-02
  -1.564  0.428E-02  0.425E-02
  -1.554  0.369E-02  0.367E-02
  -1.544  0.326E-02  0.324E-02
  -1.534  0.299E-02  0.297E-02
  -1.524  0.289E-02  0.287E-02
  -1.514  0.297E-02  0.295E-02
  -1.504  0.324E-02  0.321E-02
  -1.494  0.372E-02  0.368E-02
  -1.484  0.442E-02  0.438E-02
  -1.474  0.537E-02  0.532E-02
  -1.464  0.659E-02  0.653E-02
  -1.454  0.811E-02  0.804E-02
  -1.444  0.996E-02  0.987E-02
  -1.434  0.121E-01  0.120E-01
  -1.424  0.147E-01  0.146E-01
  -1.414  0.176E-01  0.175E-01
  -1.404  0.209E-01  0.207E-01
  -1.394  0.246E-01  0.244E-01
  -1.384  0.286E-01  0.284E-01
  -1.374  0.329E-01  0.326E-01
  -1.364  0.375E-01  0.372E-01
  -1.354  0.422E-01  0.419E-01
  -1.344  0.471E-01  0.467E-01
  -1.334  0.519E-01  0.514E-01
  -1.324  0.566E-01  0.561E-01
  -1.314  0.611E-01  0.606E-01
  -1.304  0.653E-01  0.647E-01
  -1.294  0.690E-01  0.683E-01
  -1.284  0.721E-01  0.715E-01
  -1.274  0.746E-01  0.739E-01
  -1.264  0.764E-01  0.757E-01
  -1.254  0.774E-01  0.767E-01
  -1.244  0.777E-01  0.770E-01
  -1.234  0.772E-01  0.765E-01
  -1.224  0.761E-01  0.754E-01
  -1.214  0.742E-01  0.735E-01
  -1.204  0.718E-01  0.711E-01
  -1.194  0.690E-01  0.683E-01
  -1.184  0.658E-01  0.652E-01
  -1.174  0.624E-01  0.618E-01
  -1.164  0.589E-01  0.584E-01
  -1.154  0.556E-01  0.550E-01
  -1.144  0.524E-01  0.518E-01
  -1.134  0.494E-01  0.489E-01
  -1.124  0.469E-01  0.464E-01
  -1.114  0.447E-01  0.443E-01
  -1.104  0.431E-01  0.426E-01
  -1.094  0.419E-01  0.414E-01
  -1.084  0.412E-01  0.407E-01
  -1.074  0.409E-01  0.405E-01
  -1.064  0.411E-01  0.406E-01
  -1.054  0.416E-01  0.412E-01
  -1.044  0.425E-01  0.420E-01
  -1.034  0.437E-01  0.432E-01
  -1.024  0.450E-01  0.445E-01
  -1.014  0.466E-01  0.460E-01
  -1.004  0.483E-01  0.477E-01
  -0.994  0.502E-01  0.496E-01
  -0.984  0.522E-01  0.515E-01
  -0.974  0.543E-01  0.536E-01
  -0.964  0.566E-01  0.560E-01
  -0.954  0.592E-01  0.585E-01
  -0.944  0.620E-01  0.613E-01
  -0.934  0.652E-01  0.644E-01
  -0.924  0.686E-01  0.678E-01
  -0.914  0.725E-01  0.717E-01
  -0.904  0.768E-01  0.759E-01
  -0.894  0.816E-01  0.806E-01
  -0.884  0.867E-01  0.856E-01
  -0.874  0.922E-01  0.911E-01
  -0.864  0.980E-01  0.968E-01
  -0.854  0.104E+00  0.103E+00
  -0.844  0.110E+00  0.109E+00
  -0.834  0.116E+00  0.115E+00
  -0.824  0.122E+00  0.121E+00
  -0.814  0.128E+00  0.127E+00
  -0.804  0.134E+00  0.132E+00
  -0.794  0.139E+00  0.137E+00
  -0.784  0.144E+00  0.142E+00
  -0.774  0.147E+00  0.145E+00
  -0.764  0.151E+00  0.149E+00
  -0.754  0.153E+00  0.151E+00
  -0.744  0.155E+00  0.152E+00
  -0.734  0.155E+00  0.153E+00
  -0.724  0.155E+00  0.153E+00
  -0.714  0.154E+00  0.152E+00
  -0.704  0.153E+00  0.151E+00
  -0.694  0.151E+00  0.148E+00
  -0.684  0.148E+00  0.145E+00
  -0.674  0.144E+00  0.142E+00
  -0.664  0.140E+00  0.138E+00
  -0.654  0.136E+00  0.134E+00
  -0.644  0.131E+00  0.129E+00
  -0.634  0.126E+00  0.124E+00
  -0.624  0.121E+00  0.119E+00
  -0.614  0.116E+00  0.114E+00
  -0.604  0.111E+00  0.109E+00
  -0.594  0.106E+00  0.105E+00
  -0.584  0.102E+00  0.100E+00
  -0.574  0.976E-01  0.958E-01
  -0.564  0.938E-01  0.921E-01
  -0.554  0.906E-01  0.889E-01
  -0.544  0.880E-01  0.863E-01
  -0.534  0.862E-01  0.845E-01
  -0.524  0.852E-01  0.835E-01
  -0.514  0.852E-01  0.834E-01
  -0.504  0.862E-01  0.844E-01
  -0.494  0.883E-01  0.864E-01
  -0.484  0.916E-01  0.897E-01
  -0.474  0.963E-01  0.942E-01
  -0.464  0.102E+00  0.100E+00
  -0.454  0.110E+00  0.108E+00
  -0.444  0.119E+00  0.116E+00
  -0.434  0.129E+00  0.127E+00
  -0.424  0.142E+00  0.138E+00
  -0.414  0.155E+00  0.152E+00
  -0.404  0.170E+00  0.166E+00
  -0.394  0.186E+00  0.182E+00
  -0.384  0.203E+00  0.198E+00
  -0.374  0.220E+00  0.216E+00
  -0.364  0.238E+00  0.233E+00
  -0.354  0.256E+00  0.250E+00
  -0.344  0.273E+00  0.267E+00
  -0.334  0.290E+00  0.284E+00
  -0.324  0.305E+00  0.298E+00
  -0.314  0.319E+00  0.312E+00
  -0.304  0.331E+00  0.323E+00
  -0.294  0.340E+00  0.332E+00
  -0.284  0.348E+00  0.339E+00
  -0.274  0.353E+00  0.344E+00
  -0.264  0.355E+00  0.347E+00
  -0.254  0.356E+00  0.347E+00
  -0.244  0.355E+00  0.345E+00
  -0.234  0.352E+00  0.343E+00
  -0.224  0.348E+00  0.338E+00
  -0.214  0.344E+00  0.334E+00
  -0.204  0.339E+00  0.329E+00
  -0.194  0.335E+00  0.325E+00
  -0.184  0.332E+00  0.321E+00
  -0.174  0.330E+00  0.319E+00
  -0.164  0.330E+00  0.318E+00
  -0.154  0.332E+00  0.320E+00
  -0.144  0.336E+00  0.323E+00
  -0.134  0.342E+00  0.328E+00
  -0.124  0.351E+00  0.336E+00
  -0.114  0.362E+00  0.346E+00
  -0.104  0.374E+00  0.358E+00
  -0.094  0.389E+00  0.371E+00
  -0.084  0.404E+00  0.385E+00
  -0.074  0.421E+00  0.401E+00
  -0.064  0.437E+00  0.417E+00
  -0.054  0.454E+00  0.433E+00
  -0.044  0.471E+00  0.448E+00
  -0.034  0.487E+00  0.463E+00
  -0.024  0.502E+00  0.477E+00
  -0.014  0.515E+00  0.490E+00
  -0.004  0.527E+00  0.502E+00
   0.006  0.538E+00  0.511E+00
   0.016  0.546E+00  0.520E+00
   0.026  0.553E+00  0.526E+00
   0.036  0.559E+00  0.532E+00
   0.046  0.562E+00  0.535E+00
   0.056  0.564E+00  0.537E+00
   0.066  0.565E+00  0.538E+00
   0.076  0.565E+00  0.538E+00
   0.086  0.563E+00  0.537E+00
   0.096  0.561E+00  0.535E+00
   0.106  0.557E+00  0.532E+00
   0.116  0.554E+00  0.529E+00
   0.126  0.549E+00  0.525E+00
   0.136  0.544E+00  0.520E+00
   0.146  0.539E+00  0.516E+00
   0.156  0.534E+00  0.511E+00
   0.166  0.528E+00  0.505E+00
   0.176  0.522E+00  0.500E+00
   0.186  0.515E+00  0.494E+00
   0.196  0.509E+00  0.488E+00
   0.206  0.502E+00  0.481E+00
   0.216  0.495E+00  0.475E+00
   0.226  0.487E+00  0.468E+00
   0.236  0.480E+00  0.460E+00
   0.246  0.471E+00  0.452E+00
   0.256  0.463E+00  0.444E+00
   0.266  0.454E+00  0.436E+00
   0.276  0.445E+00  0.427E+00
   0.286  0.435E+00  0.417E+00
   0.296  0.425E+00  0.407E+00
   0.306  0.414E+00  0.397E+00
   0.316  0.403E+00  0.386E+00
   0.326  0.392E+00  0.375E+00
   0.336  0.380E+00  0.363E+00
   0.346  0.368E+00  0.352E+00
   0.356  0.356E+00  0.340E+00
   0.366  0.344E+00  0.329E+00
   0.376  0.333E+00  0.317E+00
   0.386  0.321E+00  0.307E+00
   0.396  0.311E+00  0.296E+00
   0.406  0.301E+00  0.286E+00
   0.416  0.291E+00  0.278E+00
   0.426  0.283E+00  0.270E+00
   0.436  0.276E+00  0.263E+00
   0.446  0.271E+00  0.258E+00
   0.456  0.267E+00  0.254E+00
   0.466  0.264E+00  0.251E+00
   0.476  0.263E+00  0.250E+00
   0.486  0.263E+00  0.251E+00
   0.496  0.265E+00  0.252E+00
   0.506  0.268E+00  0.255E+00
   0.516  0.272E+00  0.259E+00
   0.526  0.277E+00  0.264E+00
   0.536  0.283E+00  0.269E+00
   0.546  0.289E+00  0.275E+00
   0.556  0.294E+00  0.280E+00
   0.566  0.300E+00  0.286E+00
   0.576  0.305E+00  0.290E+00
   0.586  0.309E+00  0.295E+00
   0.596  0.313E+00  0.298E+00
   0.606  0.315E+00  0.300E+00
   0.616  0.316E+00  0.301E+00
   0.626  0.317E+00  0.302E+00
   0.636  0.316E+00  0.301E+00
   0.646  0.314E+00  0.300E+00
   0.656  0.312E+00  0.298E+00
   0.666  0.310E+00  0.296E+00
   0.676  0.307E+00  0.294E+00
   0.686  0.305E+00  0.291E+00
   0.696  0.303E+00  0.290E+00
   0.706  0.302E+00  0.288E+00
   0.716  0.302E+00  0.288E+00
   0.726  0.303E+00  0.288E+00
   0.736  0.304E+00  0.289E+00
   0.746  0.307E+00  0.291E+00
   0.756  0.311E+00  0.294E+00
   0.766  0.316E+00  0.298E+00
   0.776  0.322E+00  0.302E+00
   0.786  0.328E+00  0.306E+00
   0.796  0.335E+00  0.310E+00
   0.806  0.342E+00  0.314E+00
   0.816  0.350E+00  0.318E+00
   0.826  0.356E+00  0.321E+00
   0.836  0.363E+00  0.322E+00
   0.846  0.369E+00  0.323E+00
   0.856  0.374E+00  0.323E+00
   0.866  0.379E+00  0.321E+00
   0.876  0.382E+00  0.318E+00
   0.886  0.385E+00  0.314E+00
   0.896  0.386E+00  0.308E+00
   0.906  0.387E+00  0.302E+00
   0.916  0.387E+00  0.294E+00
   0.926  0.386E+00  0.285E+00
   0.936  0.384E+00  0.275E+00
   0.946  0.382E+00  0.265E+00
   0.956  0.379E+00  0.255E+00
   0.966  0.377E+00  0.244E+00
   0.976  0.374E+00  0.234E+00
   0.986  0.371E+00  0.224E+00
   0.996  0.368E+00  0.214E+00
   1.006  0.365E+00  0.205E+00
   1.016  0.363E+00  0.197E+00
   1.026  0.361E+00  0.189E+00
   1.036  0.360E+00  0.183E+00
   1.046  0.359E+00  0.178E+00
   1.056  0.359E+00  0.174E+00
   1.066  0.360E+00  0.171E+00
   1.076  0.362E+00  0.170E+00
   1.086  0.365E+00  0.170E+00
   1.096  0.369E+00  0.171E+00
   1.106  0.374E+00  0.174E+00
   1.116  0.379E+00  0.178E+00
   1.126  0.386E+00  0.183E+00
   1.136  0.394E+00  0.190E+00
   1.146  0.403E+00  0.197E+00
   1.156  0.412E+00  0.205E+00
   1.166  0.422E+00  0.214E+00
   1.176  0.432E+00  0.224E+00
   1.186  0.443E+00  0.233E+00
   1.196  0.453E+00  0.243E+00
   1.206  0.463E+00  0.252E+00
   1.216  0.473E+00  0.261E+00
   1.226  0.481E+00  0.269E+00
   1.236  0.489E+00  0.276E+00
   1.246  0.495E+00  0.282E+00
   1.256  0.499E+00  0.286E+00
   1.266  0.502E+00  0.289E+00
   1.276  0.503E+00  0.291E+00
   1.286  0.503E+00  0.291E+00
   1.296  0.501E+00  0.290E+00
   1.306  0.499E+00  0.287E+00
   1.316  0.494E+00  0.284E+00
   1.326  0.490E+00  0.280E+00
   1.336  0.484E+00  0.275E+00
   1.346  0.479E+00  0.271E+00
   1.356  0.473E+00  0.265E+00
   1.366  0.468E+00  0.260E+00
   1.376  0.463E+00  0.256E+00
   1.386  0.458E+00  0.251E+00
   1.396  0.455E+00  0.247E+00
   1.406  0.452E+00  0.244E+00
   1.416  0.450E+00  0.241E+00
   1.426  0.449E+00  0.238E+00
   1.436  0.448E+00  0.236E+00
   1.446  0.448E+00  0.235E+00
   1.456  0.449E+00  0.233E+00
   1.466  0.450E+00  0.232E+00
   1.476  0.451E+00  0.232E+00
   1.486  0.453E+00  0.231E+00
   1.496  0.456E+00  0.231E+00
   1.506  0.458E+00  0.231E+00
   1.516  0.462E+00  0.231E+00
   1.526  0.465E+00  0.231E+00
   1.536  0.470E+00  0.231E+00
   1.546  0.475E+00  0.231E+00
   1.556  0.481E+00  0.231E+00
   1.566  0.487E+00  0.231E+00
   1.576  0.495E+00  0.231E+00
   1.586  0.503E+00  0.230E+00
   1.596  0.512E+00  0.230E+00
   1.606  0.522E+00  0.229E+00
   1.616  0.532E+00  0.227E+00
   1.626  0.543E+00  0.226E+00
   1.636  0.554E+00  0.224E+00
   1.646  0.565E+00  0.221E+00
   1.656  0.576E+00  0.218E+00
   1.666  0.587E+00  0.215E+00
   1.676  0.597E+00  0.211E+00
   1.686  0.607E+00  0.206E+00
   1.696  0.616E+00  0.202E+00
   1.706  0.625E+00  0.197E+00
   1.716  0.632E+00  0.192E+00
   1.726  0.639E+00  0.187E+00
   1.736  0.645E+00  0.181E+00
   1.746  0.650E+00  0.176E+00
   1.756  0.655E+00  0.172E+00
   1.766  0.659E+00  0.167E+00
   1.776  0.664E+00  0.163E+00
   1.786  0.668E+00  0.160E+00
   1.796  0.673E+00  0.158E+00
   1.806  0.678E+00  0.156E+00
   1.816  0.684E+00  0.156E+00
   1.826  0.691E+00  0.157E+00
   1.836  0.699E+00  0.159E+00
   1.846  0.709E+00  0.162E+00
   1.856  0.720E+00  0.167E+00
   1.866  0.733E+00  0.173E+00
   1.876  0.747E+00  0.180E+00
   1.886  0.762E+00  0.189E+00
   1.896  0.779E+00  0.199E+00
   1.906  0.796E+00  0.209E+00
   1.916  0.814E+00  0.221E+00
   1.926  0.831E+00  0.233E+00
   1.936  0.849E+00  0.245E+00
   1.946  0.866E+00  0.256E+00
   1.956  0.881E+00  0.268E+00
   1.966  0.895E+00  0.278E+00
   1.976  0.906E+00  0.288E+00
   1.986  0.916E+00  0.296E+00
   1.996  0.922E+00  0.303E+00
   2.006  0.926E+00  0.307E+00
   2.016  0.927E+00  0.310E+00
   2.026  0.925E+00  0.311E+00
   2.036  0.921E+00  0.309E+00
   2.046  0.914E+00  0.306E+00
   2.056  0.905E+00  0.300E+00
   2.066  0.894E+00  0.293E+00
   2.076  0.881E+00  0.284E+00
   2.086  0.867E+00  0.274E+00
   2.096  0.852E+00  0.263E+00
   2.106  0.837E+00  0.251E+00
   2.116  0.822E+00  0.238E+00
   2.126  0.808E+00  0.225E+00
   2.136  0.794E+00  0.213E+00
   2.146  0.781E+00  0.201E+00
   2.156  0.770E+00  0.189E+00
   2.166  0.760E+00  0.179E+00
   2.176  0.752E+00  0.169E+00
   2.186  0.746E+00  0.161E+00
   2.196  0.742E+00  0.154E+00
   2.206  0.739E+00  0.148E+00
   2.216  0.739E+00  0.144E+00
   2.226  0.739E+00  0.140E+00
   2.236  0.741E+00  0.138E+00
   2.246  0.744E+00  0.138E+00
   2.256  0.748E+00  0.138E+00
   2.266  0.753E+00  0.139E+00
   2.276  0.758E+00  0.140E+00
   2.286  0.763E+00  0.143E+00
   2.296  0.768E+00  0.146E+00
   2.306  0.773E+00  0.150E+00
   2.316  0.777E+00  0.154E+00
   2.326  0.781E+00  0.158E+00
   2.336  0.784E+00  0.163E+00
   2.346  0.787E+00  0.169E+00
   2.356  0.790E+00  0.174E+00
   2.366  0.792E+00  0.180E+00
   2.376  0.794E+00  0.185E+00
   2.386  0.795E+00  0.191E+00
   2.396  0.796E+00  0.196E+00
   2.406  0.796E+00  0.202E+00
   2.416  0.797E+00  0.206E+00
   2.426  0.797E+00  0.211E+00
   2.436  0.797E+00  0.214E+00
   2.446  0.797E+00  0.217E+00
   2.456  0.796E+00  0.219E+00
   2.466  0.796E+00  0.219E+00
   2.476  0.795E+00  0.219E+00
   2.486  0.793E+00  0.219E+00
   2.496  0.792E+00  0.217E+00
   2.506  0.791E+00  0.214E+00
   2.516  0.790E+00  0.211E+00
   2.526  0.789E+00  0.207E+00
   2.536  0.788E+00  0.203E+00
   2.546  0.788E+00  0.198E+00
   2.556  0.789E+00  0.194E+00
   2.566  0.790E+00  0.190E+00
   2.576  0.792E+00  0.186E+00
   2.586  0.796E+00  0.183E+00
   2.596  0.800E+00  0.181E+00
   2.606  0.805E+00  0.179E+00
   2.616  0.812E+00  0.179E+00
   2.626  0.819E+00  0.180E+00
   2.636  0.828E+00  0.182E+00
   2.646  0.837E+00  0.184E+00
   2.656  0.847E+00  0.188E+00
   2.666  0.857E+00  0.192E+00
   2.676  0.868E+00  0.197E+00
   2.686  0.878E+00  0.203E+00
   2.696  0.889E+00  0.208E+00
   2.706  0.899E+00  0.214E+00
   2.716  0.908E+00  0.220E+00
   2.726  0.916E+00  0.225E+00
   2.736  0.924E+00  0.229E+00
   2.746  0.931E+00  0.233E+00
   2.756  0.936E+00  0.236E+00
   2.766  0.940E+00  0.238E+00
   2.776  0.943E+00  0.240E+00
   2.786  0.945E+00  0.240E+00
   2.796  0.946E+00  0.239E+00
   2.806  0.946E+00  0.237E+00
   2.816  0.945E+00  0.235E+00
   2.826  0.944E+00  0.231E+00
   2.836  0.942E+00  0.227E+00
   2.846  0.940E+00  0.222E+00
   2.856  0.938E+00  0.217E+00
   2.866  0.936E+00  0.210E+00
   2.876  0.934E+00  0.204E+00
   2.886  0.933E+00  0.197E+00
   2.896  0.933E+00  0.190E+00
   2.906  0.933E+00  0.183E+00
   2.916  0.934E+00  0.176E+00
   2.926  0.936E+00  0.169E+00
   2.936  0.938E+00  0.163E+00
   2.946  0.941E+00  0.157E+00
   2.956  0.945E+00  0.151E+00
   2.966  0.949E+00  0.145E+00
   2.976  0.953E+00  0.141E+00
   2.986  0.957E+00  0.137E+00
   2.996  0.961E+00  0.133E+00
   3.006  0.964E+00  0.130E+00
   3.016  0.968E+00  0.127E+00
   3.026  0.970E+00  0.125E+00
   3.036  0.972E+00  0.124E+00
   3.046  0.973E+00  0.123E+00
   3.056  0.974E+00  0.122E+00
   3.066  0.973E+00  0.122E+00
   3.076  0.972E+00  0.122E+00
   3.086  0.970E+00  0.123E+00
   3.096  0.967E+00  0.124E+00
   3.106  0.964E+00  0.125E+00
   3.116  0.960E+00  0.127E+00
   3.126  0.957E+00  0.130E+00
   3.136  0.953E+00  0.133E+00
   3.146  0.949E+00  0.137E+00
   3.156  0.945E+00  0.142E+00
   3.166  0.943E+00  0.147E+00
   3.176  0.940E+00  0.154E+00
   3.186  0.939E+00  0.161E+00
   3.196  0.939E+00  0.169E+00
   3.206  0.940E+00  0.178E+00
   3.216  0.943E+00  0.187E+00
   3.226  0.946E+00  0.196E+00
   3.236  0.951E+00  0.206E+00
   3.246  0.957E+00  0.215E+00
   3.256  0.964E+00  0.224E+00
   3.266  0.971E+00  0.232E+00
   3.276  0.979E+00  0.240E+00
   3.286  0.988E+00  0.246E+00
   3.296  0.997E+00  0.251E+00
   3.306  0.101E+01  0.255E+00
   3.316  0.101E+01  0.258E+00
   3.326  0.102E+01  0.258E+00
   3.336  0.103E+01  0.258E+00
   3.346  0.104E+01  0.256E+00
   3.356  0.105E+01  0.252E+00
   3.366  0.105E+01  0.247E+00
   3.376  0.106E+01  0.241E+00
   3.386  0.106E+01  0.234E+00
   3.396  0.106E+01  0.226E+00
   3.406  0.106E+01  0.218E+00
   3.416  0.106E+01  0.209E+00
   3.426  0.106E+01  0.200E+00
   3.436  0.106E+01  0.191E+00
   3.446  0.106E+01  0.182E+00
   3.456  0.105E+01  0.174E+00
   3.466  0.104E+01  0.166E+00
   3.476  0.104E+01  0.158E+00
   3.486  0.103E+01  0.151E+00
   3.496  0.102E+01  0.145E+00
   3.506  0.101E+01  0.140E+00
   3.516  0.997E+00  0.136E+00
   3.526  0.985E+00  0.132E+00
   3.536  0.972E+00  0.130E+00
   3.546  0.960E+00  0.128E+00
   3.556  0.948E+00  0.127E+00
   3.566  0.936E+00  0.127E+00
   3.576  0.924E+00  0.127E+00
   3.586  0.914E+00  0.128E+00
   3.596  0.904E+00  0.129E+00
   3.606  0.896E+00  0.131E+00
   3.616  0.888E+00  0.133E+00
   3.626  0.883E+00  0.136E+00
   3.636  0.879E+00  0.138E+00
   3.646  0.876E+00  0.141E+00
   3.656  0.875E+00  0.144E+00
   3.666  0.876E+00  0.146E+00
   3.676  0.879E+00  0.149E+00
   3.686  0.883E+00  0.152E+00
   3.696  0.889E+00  0.154E+00
   3.706  0.896E+00  0.157E+00
   3.716  0.904E+00  0.159E+00
   3.726  0.913E+00  0.161E+00
   3.736  0.923E+00  0.162E+00
   3.746  0.933E+00  0.164E+00
   3.756  0.944E+00  0.164E+00
   3.766  0.954E+00  0.165E+00
   3.776  0.964E+00  0.165E+00
   3.786  0.973E+00  0.165E+00
   3.796  0.982E+00  0.164E+00
   3.806  0.990E+00  0.163E+00
   3.816  0.997E+00  0.161E+00
   3.826  0.100E+01  0.160E+00
   3.836  0.101E+01  0.157E+00
   3.846  0.101E+01  0.155E+00
   3.856  0.101E+01  0.153E+00
   3.866  0.101E+01  0.150E+00
   3.876  0.101E+01  0.147E+00
   3.886  0.101E+01  0.145E+00
   3.896  0.101E+01  0.143E+00
   3.906  0.101E+01  0.141E+00
   3.916  0.100E+01  0.139E+00
   3.926  0.996E+00  0.138E+00
   3.936  0.991E+00  0.137E+00
   3.946  0.985E+00  0.138E+00
   3.956  0.980E+00  0.139E+00
   3.966  0.975E+00  0.141E+00
   3.976  0.970E+00  0.143E+00
   3.986  0.966E+00  0.147E+00
   3.996  0.964E+00  0.152E+00
   4.006  0.962E+00  0.158E+00
   4.016  0.962E+00  0.164E+00
   4.026  0.964E+00  0.171E+00
   4.036  0.967E+00  0.179E+00
   4.046  0.971E+00  0.187E+00
   4.056  0.976E+00  0.195E+00
   4.066  0.983E+00  0.203E+00
   4.076  0.990E+00  0.210E+00
   4.086  0.997E+00  0.217E+00
   4.096  0.100E+01  0.223E+00
   4.106  0.101E+01  0.227E+00
   4.116  0.102E+01  0.231E+00
   4.126  0.102E+01  0.233E+00
   4.136  0.102E+01  0.234E+00
   4.146  0.102E+01  0.233E+00
   4.156  0.102E+01  0.230E+00
   4.166  0.102E+01  0.226E+00
   4.176  0.102E+01  0.220E+00
   4.186  0.101E+01  0.213E+00
   4.196  0.100E+01  0.205E+00
   4.206  0.991E+00  0.196E+00
   4.216  0.981E+00  0.187E+00
   4.226  0.971E+00  0.176E+00
   4.236  0.960E+00  0.166E+00
   4.246  0.950E+00  0.155E+00
   4.256  0.941E+00  0.145E+00
   4.266  0.933E+00  0.135E+00
   4.276  0.926E+00  0.126E+00
   4.286  0.920E+00  0.117E+00
   4.296  0.915E+00  0.110E+00
   4.306  0.912E+00  0.103E+00
   4.316  0.911E+00  0.981E-01
   4.326  0.910E+00  0.939E-01
   4.336  0.911E+00  0.908E-01
   4.346  0.913E+00  0.890E-01
   4.356  0.916E+00  0.882E-01
   4.366  0.920E+00  0.884E-01
   4.376  0.924E+00  0.896E-01
   4.386  0.929E+00  0.915E-01
   4.396  0.934E+00  0.942E-01
   4.406  0.940E+00  0.974E-01
   4.416  0.946E+00  0.101E+00
   4.426  0.952E+00  0.105E+00
   4.436  0.957E+00  0.109E+00
   4.446  0.963E+00  0.114E+00
   4.456  0.969E+00  0.118E+00
   4.466  0.975E+00  0.122E+00
   4.476  0.980E+00  0.127E+00
   4.486  0.986E+00  0.131E+00
   4.496  0.991E+00  0.136E+00
   4.506  0.996E+00  0.140E+00
   4.516  0.100E+01  0.144E+00
   4.526  0.100E+01  0.148E+00
   4.536  0.101E+01  0.152E+00
   4.546  0.101E+01  0.156E+00
   4.556  0.101E+01  0.160E+00
   4.566  0.102E+01  0.164E+00
   4.576  0.102E+01  0.167E+00
   4.586  0.102E+01  0.171E+00
   4.596  0.102E+01  0.174E+00
   4.606  0.102E+01  0.176E+00
   4.616  0.101E+01  0.179E+00
   4.626  0.101E+01  0.180E+00
   4.636  0.100E+01  0.182E+00
   4.646  0.100E+01  0.183E+00
   4.656  0.994E+00  0.183E+00
   4.666  0.988E+00  0.183E+00
   4.676  0.981E+00  0.183E+00
   4.686  0.975E+00  0.182E+00
   4.696  0.968E+00  0.181E+00
   4.706  0.962E+00  0.179E+00
   4.716  0.956E+00  0.177E+00
   4.726  0.950E+00  0.175E+00
   4.736  0.945E+00  0.173E+00
   4.746  0.941E+00  0.170E+00
   4.756  0.937E+00  0.167E+00
   4.766  0.934E+00  0.164E+00
   4.776  0.931E+00  0.161E+00
   4.786  0.928E+00  0.157E+00
   4.796  0.925E+00  0.153E+00
   4.806  0.922E+00  0.149E+00
   4.816  0.919E+00  0.144E+00
   4.826  0.915E+00  0.140E+00
   4.836  0.911E+00  0.134E+00
   4.846  0.906E+00  0.129E+00
   4.856  0.900E+00  0.123E+00
   4.866  0.893E+00  0.117E+00
   4.876  0.886E+00  0.111E+00
   4.886  0.878E+00  0.105E+00
   4.896  0.869E+00  0.995E-01
   4.906  0.861E+00  0.937E-01
   4.916  0.852E+00  0.883E-01
   4.926  0.843E+00  0.832E-01
   4.936  0.835E+00  0.788E-01
   4.946  0.828E+00  0.749E-01
   4.956  0.821E+00  0.719E-01
   4.966  0.815E+00  0.696E-01
   4.976  0.810E+00  0.683E-01
   4.986  0.807E+00  0.679E-01
   4.996  0.804E+00  0.684E-01
   5.006  0.804E+00  0.699E-01
   5.016  0.805E+00  0.722E-01
   5.026  0.807E+00  0.754E-01
   5.036  0.811E+00  0.793E-01
   5.046  0.817E+00  0.838E-01
   5.056  0.824E+00  0.888E-01
   5.066  0.832E+00  0.942E-01
   5.076  0.842E+00  0.998E-01
   5.086  0.853E+00  0.106E+00
   5.096  0.865E+00  0.111E+00
   5.106  0.877E+00  0.117E+00
   5.116  0.891E+00  0.122E+00
   5.126  0.904E+00  0.127E+00
   5.136  0.918E+00  0.131E+00
   5.146  0.932E+00  0.135E+00
   5.156  0.947E+00  0.138E+00
   5.166  0.960E+00  0.141E+00
   5.176  0.974E+00  0.143E+00
   5.186  0.987E+00  0.144E+00
   5.196  0.999E+00  0.145E+00
   5.206  0.101E+01  0.146E+00
   5.216  0.102E+01  0.146E+00
   5.226  0.103E+01  0.146E+00
   5.236  0.104E+01  0.146E+00
   5.246  0.105E+01  0.146E+00
   5.256  0.105E+01  0.146E+00
   5.266  0.106E+01  0.145E+00
   5.276  0.106E+01  0.145E+00
   5.286  0.106E+01  0.145E+00
   5.296  0.107E+01  0.145E+00
   5.306  0.107E+01  0.145E+00
   5.316  0.107E+01  0.145E+00
   5.326  0.106E+01  0.146E+00
   5.336  0.106E+01  0.147E+00
   5.346  0.106E+01  0.148E+00
   5.356  0.105E+01  0.149E+00
   5.366  0.104E+01  0.151E+00
   5.376  0.104E+01  0.152E+00
   5.386  0.103E+01  0.154E+00
   5.396  0.102E+01  0.156E+00
   5.406  0.101E+01  0.158E+00
   5.416  0.996E+00  0.159E+00
   5.426  0.984E+00  0.161E+00
   5.436  0.972E+00  0.163E+00
   5.446  0.959E+00  0.164E+00
   5.456  0.945E+00  0.165E+00
   5.466  0.931E+00  0.165E+00
   5.476  0.917E+00  0.166E+00
   5.486  0.903E+00  0.165E+00
   5.496  0.889E+00  0.164E+00
   5.506  0.875E+00  0.162E+00
   5.516  0.861E+00  0.159E+00
   5.526  0.847E+00  0.156E+00
   5.536  0.834E+00  0.151E+00
   5.546  0.821E+00  0.147E+00
   5.556  0.809E+00  0.141E+00
   5.566  0.797E+00  0.135E+00
   5.576  0.785E+00  0.128E+00
   5.586  0.775E+00  0.121E+00
   5.596  0.765E+00  0.113E+00
   5.606  0.755E+00  0.105E+00
   5.616  0.746E+00  0.972E-01
   5.626  0.738E+00  0.893E-01
   5.636  0.730E+00  0.815E-01
   5.646  0.722E+00  0.738E-01
   5.656  0.715E+00  0.665E-01
   5.666  0.708E+00  0.595E-01
   5.676  0.701E+00  0.529E-01
   5.686  0.694E+00  0.468E-01
   5.696  0.687E+00  0.411E-01
   5.706  0.681E+00  0.360E-01
   5.716  0.675E+00  0.313E-01
   5.726  0.669E+00  0.272E-01
   5.736  0.663E+00  0.235E-01
   5.746  0.657E+00  0.203E-01
   5.756  0.653E+00  0.176E-01
   5.766  0.648E+00  0.152E-01
   5.776  0.645E+00  0.132E-01
   5.786  0.642E+00  0.114E-01
   5.796  0.640E+00  0.100E-01
   5.806  0.639E+00  0.885E-02
   5.816  0.638E+00  0.789E-02
   5.826  0.638E+00  0.711E-02
   5.836  0.639E+00  0.649E-02
   5.846  0.640E+00  0.600E-02
   5.856  0.641E+00  0.561E-02
   5.866  0.642E+00  0.531E-02
   5.876  0.643E+00  0.508E-02
   5.886  0.643E+00  0.491E-02
   5.896  0.642E+00  0.477E-02
   5.906  0.640E+00  0.467E-02
   5.916  0.638E+00  0.459E-02
   5.926  0.634E+00  0.452E-02
   5.936  0.629E+00  0.446E-02
   5.946  0.623E+00  0.441E-02
   5.956  0.616E+00  0.436E-02
   5.966  0.608E+00  0.431E-02
   5.976  0.600E+00  0.426E-02
   5.986  0.591E+00  0.421E-02
   5.996  0.581E+00  0.415E-02
   6.006  0.572E+00  0.410E-02
   6.016  0.564E+00  0.405E-02
   6.026  0.556E+00  0.401E-02
   6.036  0.549E+00  0.397E-02
   6.046  0.543E+00  0.394E-02
   6.056  0.538E+00  0.391E-02
   6.066  0.535E+00  0.390E-02
   6.076  0.533E+00  0.389E-02
   6.086  0.533E+00  0.390E-02
   6.096  0.533E+00  0.392E-02
   6.106  0.535E+00  0.396E-02
   6.116  0.538E+00  0.400E-02
   6.126  0.542E+00  0.405E-02
   6.136  0.547E+00  0.411E-02
   6.146  0.552E+00  0.418E-02
   6.156  0.558E+00  0.426E-02
   6.166  0.564E+00  0.434E-02
   6.176  0.571E+00  0.442E-02
   6.186  0.578E+00  0.451E-02
   6.196  0.585E+00  0.459E-02
   6.206  0.592E+00  0.468E-02
   6.216  0.599E+00  0.476E-02
   6.226  0.607E+00  0.483E-02
   6.236  0.615E+00  0.491E-02
   6.246  0.623E+00  0.497E-02
   6.256  0.630E+00  0.503E-02
   6.266  0.638E+00  0.508E-02
   6.276  0.646E+00  0.512E-02
   6.286  0.654E+00  0.515E-02
   6.296  0.661E+00  0.517E-02
   6.306  0.668E+00  0.518E-02
   6.316  0.675E+00  0.518E-02
   6.326  0.680E+00  0.517E-02
   6.336  0.685E+00  0.515E-02
   6.346  0.689E+00  0.511E-02
   6.356  0.691E+00  0.507E-02
   6.366  0.693E+00  0.501E-02
   6.376  0.693E+00  0.493E-02
   6.386  0.693E+00  0.485E-02
   6.396  0.691E+00  0.476E-02
   6.406  0.688E+00  0.465E-02
   6.416  0.685E+00  0.454E-02
   6.426  0.681E+00  0.443E-02
   6.436  0.676E+00  0.431E-02
   6.446  0.670E+00  0.419E-02
   6.456  0.664E+00  0.407E-02
   6.466  0.658E+00  0.396E-02
   6.476  0.652E+00  0.385E-02
   6.486  0.646E+00  0.376E-02
   6.496  0.639E+00  0.368E-02
   6.506  0.633E+00  0.362E-02
   6.516  0.627E+00  0.358E-02
   6.526  0.622E+00  0.357E-02
   6.536  0.616E+00  0.357E-02
   6.546  0.611E+00  0.360E-02
   6.556  0.606E+00  0.364E-02
   6.566  0.601E+00  0.371E-02
   6.576  0.597E+00  0.380E-02
   6.586  0.592E+00  0.390E-02
   6.596  0.587E+00  0.401E-02
   6.606  0.582E+00  0.412E-02
   6.616  0.577E+00  0.424E-02
   6.626  0.572E+00  0.435E-02
   6.636  0.566E+00  0.446E-02
   6.646  0.560E+00  0.456E-02
   6.656  0.554E+00  0.464E-02
   6.666  0.547E+00  0.471E-02
   6.676  0.541E+00  0.476E-02
   6.686  0.535E+00  0.479E-02
   6.696  0.529E+00  0.481E-02
   6.706  0.524E+00  0.482E-02
   6.716  0.519E+00  0.482E-02
   6.726  0.516E+00  0.481E-02
   6.736  0.515E+00  0.481E-02
   6.746  0.515E+00  0.481E-02
   6.756  0.517E+00  0.483E-02
   6.766  0.522E+00  0.486E-02
   6.776  0.528E+00  0.492E-02
   6.786  0.536E+00  0.501E-02
   6.796  0.546E+00  0.513E-02
   6.806  0.557E+00  0.528E-02
   6.816  0.570E+00  0.548E-02
   6.826  0.584E+00  0.571E-02
   6.836  0.598E+00  0.598E-02
   6.846  0.612E+00  0.630E-02
   6.856  0.625E+00  0.666E-02
   6.866  0.638E+00  0.705E-02
   6.876  0.650E+00  0.749E-02
   6.886  0.660E+00  0.798E-02
   6.896  0.669E+00  0.850E-02
   6.906  0.676E+00  0.908E-02
   6.916  0.681E+00  0.970E-02
   6.926  0.685E+00  0.104E-01
   6.936  0.687E+00  0.112E-01
   6.946  0.687E+00  0.120E-01
   6.956  0.687E+00  0.130E-01
   6.966  0.687E+00  0.141E-01
   6.976  0.686E+00  0.154E-01
   6.986  0.685E+00  0.169E-01
   6.996  0.684E+00  0.187E-01
   7.006  0.685E+00  0.209E-01
   7.016  0.686E+00  0.234E-01
   7.026  0.689E+00  0.264E-01
   7.036  0.693E+00  0.300E-01
   7.046  0.699E+00  0.342E-01
   7.056  0.707E+00  0.392E-01
   7.066  0.716E+00  0.449E-01
   7.076  0.727E+00  0.516E-01
   7.086  0.740E+00  0.591E-01
   7.096  0.754E+00  0.677E-01
   7.106  0.768E+00  0.772E-01
   7.116  0.784E+00  0.877E-01
   7.126  0.800E+00  0.991E-01
   7.136  0.816E+00  0.112E+00
   7.146  0.832E+00  0.125E+00
   7.156  0.847E+00  0.139E+00
   7.166  0.861E+00  0.153E+00
   7.176  0.874E+00  0.168E+00
   7.186  0.886E+00  0.182E+00
   7.196  0.895E+00  0.197E+00
   7.206  0.902E+00  0.211E+00
   7.216  0.907E+00  0.225E+00
   7.226  0.910E+00  0.238E+00
   7.236  0.911E+00  0.250E+00
   7.246  0.909E+00  0.261E+00
   7.256  0.906E+00  0.270E+00
   7.266  0.900E+00  0.277E+00
   7.276  0.893E+00  0.283E+00
   7.286  0.884E+00  0.288E+00
   7.296  0.874E+00  0.290E+00
   7.306  0.862E+00  0.291E+00
   7.316  0.850E+00  0.290E+00
   7.326  0.838E+00  0.288E+00
   7.336  0.825E+00  0.285E+00
   7.346  0.812E+00  0.280E+00
   7.356  0.799E+00  0.275E+00
   7.366  0.786E+00  0.269E+00
   7.376  0.774E+00  0.262E+00
   7.386  0.763E+00  0.256E+00
   7.396  0.753E+00  0.250E+00
   7.406  0.745E+00  0.244E+00
   7.416  0.739E+00  0.239E+00
   7.426  0.735E+00  0.234E+00
   7.436  0.733E+00  0.231E+00
   7.446  0.734E+00  0.228E+00
   7.456  0.738E+00  0.226E+00
   7.466  0.744E+00  0.226E+00
   7.476  0.754E+00  0.226E+00
   7.486  0.766E+00  0.227E+00
   7.496  0.781E+00  0.228E+00
   7.506  0.798E+00  0.231E+00
   7.516  0.817E+00  0.233E+00
   7.526  0.837E+00  0.235E+00
   7.536  0.857E+00  0.237E+00
   7.546  0.878E+00  0.239E+00
   7.556  0.897E+00  0.240E+00
   7.566  0.914E+00  0.240E+00
   7.576  0.929E+00  0.240E+00
   7.586  0.941E+00  0.238E+00
   7.596  0.950E+00  0.235E+00
   7.606  0.954E+00  0.231E+00
   7.616  0.954E+00  0.225E+00
   7.626  0.950E+00  0.219E+00
   7.636  0.941E+00  0.211E+00
   7.646  0.928E+00  0.203E+00
   7.656  0.911E+00  0.193E+00
   7.666  0.892E+00  0.183E+00
   7.676  0.869E+00  0.172E+00
   7.686  0.845E+00  0.161E+00
   7.696  0.819E+00  0.150E+00
   7.706  0.793E+00  0.139E+00
   7.716  0.767E+00  0.129E+00
   7.726  0.742E+00  0.118E+00
   7.736  0.719E+00  0.109E+00
   7.746  0.698E+00  0.996E-01
   7.756  0.680E+00  0.915E-01
   7.766  0.665E+00  0.845E-01
   7.776  0.652E+00  0.786E-01
   7.786  0.644E+00  0.740E-01
   7.796  0.638E+00  0.707E-01
   7.806  0.636E+00  0.687E-01
   7.816  0.636E+00  0.682E-01
   7.826  0.640E+00  0.690E-01
   7.836  0.646E+00  0.712E-01
   7.846  0.655E+00  0.748E-01
   7.856  0.665E+00  0.795E-01
   7.866  0.677E+00  0.854E-01
   7.876  0.690E+00  0.922E-01
   7.886  0.703E+00  0.998E-01
   7.896  0.717E+00  0.108E+00
   7.906  0.731E+00  0.117E+00
   7.916  0.743E+00  0.125E+00
   7.926  0.754E+00  0.134E+00
   7.936  0.764E+00  0.142E+00
   7.946  0.771E+00  0.150E+00
   7.956  0.776E+00  0.157E+00
   7.966  0.778E+00  0.164E+00
   7.976  0.778E+00  0.169E+00
   7.986  0.774E+00  0.173E+00
   7.996  0.767E+00  0.175E+00
   8.006  0.757E+00  0.176E+00
   8.016  0.745E+00  0.176E+00
   8.026  0.730E+00  0.175E+00
   8.036  0.713E+00  0.172E+00
   8.046  0.695E+00  0.168E+00
   8.056  0.676E+00  0.162E+00
   8.066  0.656E+00  0.156E+00
   8.076  0.637E+00  0.149E+00
   8.086  0.618E+00  0.141E+00
   8.096  0.600E+00  0.133E+00
   8.106  0.584E+00  0.125E+00
   8.116  0.569E+00  0.116E+00
   8.126  0.557E+00  0.107E+00
   8.136  0.547E+00  0.982E-01
   8.146  0.539E+00  0.896E-01
   8.156  0.534E+00  0.812E-01
   8.166  0.531E+00  0.733E-01
   8.176  0.530E+00  0.658E-01
   8.186  0.532E+00  0.588E-01
   8.196  0.535E+00  0.524E-01
   8.206  0.539E+00  0.466E-01
   8.216  0.545E+00  0.413E-01
   8.226  0.552E+00  0.367E-01
   8.236  0.560E+00  0.327E-01
   8.246  0.569E+00  0.292E-01
   8.256  0.579E+00  0.264E-01
   8.266  0.588E+00  0.242E-01
   8.276  0.599E+00  0.225E-01
   8.286  0.609E+00  0.215E-01
   8.296  0.619E+00  0.210E-01
   8.306  0.630E+00  0.211E-01
   8.316  0.640E+00  0.218E-01
   8.326  0.649E+00  0.231E-01
   8.336  0.659E+00  0.251E-01
   8.346  0.667E+00  0.276E-01
   8.356  0.675E+00  0.309E-01
   8.366  0.683E+00  0.348E-01
   8.376  0.690E+00  0.393E-01
   8.386  0.696E+00  0.445E-01
   8.396  0.702E+00  0.503E-01
   8.406  0.707E+00  0.567E-01
   8.416  0.712E+00  0.636E-01
   8.426  0.716E+00  0.710E-01
   8.436  0.721E+00  0.787E-01
   8.446  0.725E+00  0.867E-01
   8.456  0.728E+00  0.947E-01
   8.466  0.732E+00  0.103E+00
   8.476  0.735E+00  0.110E+00
   8.486  0.737E+00  0.118E+00
   8.496  0.740E+00  0.125E+00
   8.506  0.741E+00  0.131E+00
   8.516  0.742E+00  0.136E+00
   8.526  0.742E+00  0.141E+00
   8.536  0.740E+00  0.144E+00
   8.546  0.737E+00  0.146E+00
   8.556  0.733E+00  0.147E+00
   8.566  0.727E+00  0.146E+00
   8.576  0.720E+00  0.145E+00
   8.586  0.711E+00  0.142E+00
   8.596  0.701E+00  0.138E+00
   8.606  0.689E+00  0.133E+00
   8.616  0.677E+00  0.127E+00
   8.626  0.664E+00  0.120E+00
   8.636  0.650E+00  0.113E+00
   8.646  0.637E+00  0.106E+00
   8.656  0.625E+00  0.979E-01
   8.666  0.613E+00  0.899E-01
   8.676  0.602E+00  0.819E-01
   8.686  0.593E+00  0.742E-01
   8.696  0.586E+00  0.667E-01
   8.706  0.581E+00  0.596E-01
   8.716  0.577E+00  0.529E-01
   8.726  0.576E+00  0.468E-01
   8.736  0.576E+00  0.413E-01
   8.746  0.578E+00  0.363E-01
   8.756  0.582E+00  0.318E-01
   8.766  0.586E+00  0.280E-01
   8.776  0.591E+00  0.246E-01
   8.786  0.595E+00  0.217E-01
   8.796  0.600E+00  0.193E-01
   8.806  0.604E+00  0.173E-01
   8.816  0.606E+00  0.156E-01
   8.826  0.608E+00  0.142E-01
   8.836  0.608E+00  0.131E-01
   8.846  0.606E+00  0.122E-01
   8.856  0.603E+00  0.114E-01
   8.866  0.598E+00  0.108E-01
   8.876  0.592E+00  0.103E-01
   8.886  0.584E+00  0.100E-01
   8.896  0.576E+00  0.978E-02
   8.906  0.568E+00  0.967E-02
   8.916  0.560E+00  0.970E-02
   8.926  0.552E+00  0.987E-02
   8.936  0.546E+00  0.102E-01
   8.946  0.540E+00  0.108E-01
   8.956  0.537E+00  0.115E-01
   8.966  0.536E+00  0.126E-01
   8.976  0.537E+00  0.139E-01
   8.986  0.540E+00  0.157E-01
   8.996  0.546E+00  0.178E-01
   9.006  0.555E+00  0.203E-01
   9.016  0.567E+00  0.233E-01
   9.026  0.581E+00  0.268E-01
   9.036  0.598E+00  0.308E-01
   9.046  0.617E+00  0.353E-01
   9.056  0.638E+00  0.403E-01
   9.066  0.661E+00  0.458E-01
   9.076  0.686E+00  0.517E-01
   9.086  0.711E+00  0.581E-01
   9.096  0.738E+00  0.647E-01
   9.106  0.765E+00  0.715E-01
   9.116  0.793E+00  0.783E-01
   9.126  0.821E+00  0.852E-01
   9.136  0.848E+00  0.918E-01
   9.146  0.875E+00  0.980E-01
   9.156  0.901E+00  0.104E+00
   9.166  0.926E+00  0.109E+00
   9.176  0.950E+00  0.113E+00
   9.186  0.973E+00  0.117E+00
   9.196  0.994E+00  0.119E+00
   9.206  0.101E+01  0.120E+00
   9.216  0.103E+01  0.121E+00
   9.226  0.104E+01  0.120E+00
   9.236  0.106E+01  0.118E+00
   9.246  0.107E+01  0.115E+00
   9.256  0.107E+01  0.111E+00
   9.266  0.108E+01  0.106E+00
   9.276  0.108E+01  0.101E+00
   9.286  0.108E+01  0.949E-01
   9.296  0.107E+01  0.884E-01
   9.306  0.107E+01  0.817E-01
   9.316  0.106E+01  0.749E-01
   9.326  0.105E+01  0.681E-01
   9.336  0.104E+01  0.614E-01
   9.346  0.102E+01  0.550E-01
   9.356  0.101E+01  0.490E-01
   9.366  0.989E+00  0.433E-01
   9.376  0.971E+00  0.382E-01
   9.386  0.952E+00  0.335E-01
   9.396  0.932E+00  0.293E-01
   9.406  0.912E+00  0.256E-01
   9.416  0.891E+00  0.224E-01
   9.426  0.869E+00  0.196E-01
   9.436  0.847E+00  0.173E-01
   9.446  0.825E+00  0.153E-01
   9.456  0.802E+00  0.137E-01
   9.466  0.779E+00  0.123E-01
   9.476  0.756E+00  0.112E-01
   9.486  0.733E+00  0.103E-01
   9.496  0.710E+00  0.953E-02
   9.506  0.688E+00  0.890E-02
   9.516  0.666E+00  0.838E-02
   9.526  0.646E+00  0.794E-02
   9.536  0.627E+00  0.757E-02
   9.546  0.610E+00  0.726E-02
   9.556  0.594E+00  0.700E-02
   9.566  0.581E+00  0.679E-02
   9.576  0.570E+00  0.663E-02
   9.586  0.562E+00  0.651E-02
   9.596  0.557E+00  0.645E-02
   9.606  0.554E+00  0.644E-02
   9.616  0.554E+00  0.648E-02
   9.626  0.555E+00  0.660E-02
   9.636  0.559E+00  0.679E-02
   9.646  0.564E+00  0.705E-02
   9.656  0.569E+00  0.742E-02
   9.666  0.576E+00  0.789E-02
   9.676  0.582E+00  0.848E-02
   9.686  0.588E+00  0.921E-02
   9.696  0.594E+00  0.101E-01
   9.706  0.598E+00  0.112E-01
   9.716  0.601E+00  0.125E-01
   9.726  0.603E+00  0.140E-01
   9.736  0.603E+00  0.158E-01
   9.746  0.603E+00  0.180E-01
   9.756  0.601E+00  0.204E-01
   9.766  0.598E+00  0.233E-01
   9.776  0.595E+00  0.265E-01
   9.786  0.592E+00  0.301E-01
   9.796  0.589E+00  0.341E-01
   9.806  0.587E+00  0.384E-01
   9.816  0.585E+00  0.431E-01
   9.826  0.585E+00  0.480E-01
   9.836  0.585E+00  0.532E-01
   9.846  0.587E+00  0.585E-01
   9.856  0.590E+00  0.638E-01
   9.866  0.593E+00  0.691E-01
   9.876  0.598E+00  0.741E-01
   9.886  0.603E+00  0.788E-01
   9.896  0.608E+00  0.831E-01
   9.906  0.613E+00  0.867E-01
   9.916  0.618E+00  0.897E-01
   9.926  0.622E+00  0.919E-01
   9.936  0.624E+00  0.933E-01
   9.946  0.626E+00  0.938E-01
   9.956  0.626E+00  0.934E-01
   9.966  0.624E+00  0.921E-01
   9.976  0.621E+00  0.899E-01
   9.986  0.616E+00  0.869E-01
   9.996  0.610E+00  0.833E-01
  10.006  0.603E+00  0.790E-01
  10.016  0.595E+00  0.743E-01
  10.026  0.586E+00  0.692E-01
  10.036  0.577E+00  0.639E-01
  10.046  0.568E+00  0.585E-01
  10.056  0.559E+00  0.530E-01
  10.066  0.550E+00  0.478E-01
  10.076  0.542E+00  0.427E-01
  10.086  0.535E+00  0.379E-01
  10.096  0.530E+00  0.334E-01
  10.106  0.525E+00  0.293E-01
  10.116  0.521E+00  0.257E-01
  10.126  0.518E+00  0.224E-01
  10.136  0.517E+00  0.195E-01
  10.146  0.516E+00  0.170E-01
  10.156  0.515E+00  0.149E-01
  10.166  0.515E+00  0.131E-01
  10.176  0.515E+00  0.117E-01
  10.186  0.515E+00  0.104E-01
  10.196  0.515E+00  0.941E-02
  10.206  0.514E+00  0.860E-02
  10.216  0.512E+00  0.794E-02
  10.226  0.510E+00  0.741E-02
  10.236  0.507E+00  0.699E-02
  10.246  0.502E+00  0.665E-02
  10.256  0.497E+00  0.637E-02
  10.266  0.490E+00  0.614E-02
  10.276  0.483E+00  0.595E-02
  10.286  0.474E+00  0.578E-02
  10.296  0.464E+00  0.562E-02
  10.306  0.452E+00  0.548E-02
  10.316  0.440E+00  0.534E-02
  10.326  0.427E+00  0.519E-02
  10.336  0.412E+00  0.505E-02
  10.346  0.397E+00  0.490E-02
  10.356  0.381E+00  0.475E-02
  10.366  0.364E+00  0.459E-02
  10.376  0.346E+00  0.444E-02
  10.386  0.327E+00  0.428E-02
  10.396  0.309E+00  0.413E-02
  10.406  0.289E+00  0.400E-02
  10.416  0.270E+00  0.389E-02
  10.426  0.251E+00  0.382E-02
  10.436  0.232E+00  0.380E-02
  10.446  0.214E+00  0.385E-02
  10.456  0.197E+00  0.399E-02
  10.466  0.180E+00  0.423E-02
  10.476  0.165E+00  0.461E-02
  10.486  0.151E+00  0.515E-02
  10.496  0.139E+00  0.588E-02
  10.506  0.129E+00  0.682E-02
  10.516  0.121E+00  0.800E-02
  10.526  0.115E+00  0.944E-02
  10.536  0.111E+00  0.112E-01
  10.546  0.109E+00  0.132E-01
  10.556  0.110E+00  0.156E-01
  10.566  0.112E+00  0.182E-01
  10.576  0.117E+00  0.212E-01
  10.586  0.124E+00  0.244E-01
  10.596  0.133E+00  0.279E-01
  10.606  0.143E+00  0.316E-01
  10.616  0.155E+00  0.354E-01
  10.626  0.167E+00  0.393E-01
  10.636  0.181E+00  0.432E-01
  10.646  0.194E+00  0.470E-01
  10.656  0.207E+00  0.506E-01
  10.666  0.220E+00  0.539E-01
  10.676  0.232E+00  0.568E-01
  10.686  0.243E+00  0.593E-01
  10.696  0.253E+00  0.612E-01
  10.706  0.261E+00  0.625E-01
  10.716  0.267E+00  0.632E-01
  10.726  0.271E+00  0.633E-01
  10.736  0.273E+00  0.627E-01
  10.746  0.272E+00  0.614E-01
  10.756  0.270E+00  0.596E-01
  10.766  0.266E+00  0.573E-01
  10.776  0.260E+00  0.544E-01
  10.786  0.252E+00  0.513E-01
  10.796  0.243E+00  0.478E-01
  10.806  0.234E+00  0.441E-01
  10.816  0.223E+00  0.404E-01
  10.826  0.212E+00  0.366E-01
  10.836  0.202E+00  0.329E-01
  10.846  0.191E+00  0.293E-01
  10.856  0.181E+00  0.259E-01
  10.866  0.172E+00  0.227E-01
  10.876  0.164E+00  0.198E-01
  10.886  0.158E+00  0.171E-01
  10.896  0.153E+00  0.148E-01
  10.906  0.149E+00  0.127E-01
  10.916  0.147E+00  0.109E-01
  10.926  0.147E+00  0.942E-02
  10.936  0.148E+00  0.814E-02
  10.946  0.150E+00  0.707E-02
  10.956  0.154E+00  0.619E-02
  10.966  0.159E+00  0.548E-02
  10.976  0.164E+00  0.490E-02
  10.986  0.170E+00  0.444E-02
  10.996  0.177E+00  0.407E-02
  11.006  0.183E+00  0.377E-02
  11.016  0.189E+00  0.353E-02
  11.026  0.195E+00  0.332E-02
  11.036  0.200E+00  0.315E-02
  11.046  0.205E+00  0.299E-02
  11.056  0.208E+00  0.285E-02
  11.066  0.210E+00  0.272E-02
  11.076  0.211E+00  0.259E-02
  11.086  0.211E+00  0.247E-02
  11.096  0.210E+00  0.235E-02
  11.106  0.208E+00  0.223E-02
  11.116  0.204E+00  0.212E-02
  11.126  0.200E+00  0.202E-02
  11.136  0.195E+00  0.192E-02
  11.146  0.189E+00  0.183E-02
  11.156  0.183E+00  0.175E-02
  11.166  0.176E+00  0.169E-02
  11.176  0.168E+00  0.163E-02
  11.186  0.161E+00  0.160E-02
  11.196  0.153E+00  0.158E-02
  11.206  0.145E+00  0.158E-02
  11.216  0.138E+00  0.161E-02
  11.226  0.131E+00  0.166E-02
  11.236  0.123E+00  0.175E-02
  11.246  0.117E+00  0.186E-02
  11.256  0.111E+00  0.201E-02
  11.266  0.105E+00  0.220E-02
  11.276  0.101E+00  0.243E-02
  11.286  0.972E-01  0.270E-02
  11.296  0.944E-01  0.301E-02
  11.306  0.925E-01  0.337E-02
  11.316  0.917E-01  0.377E-02
  11.326  0.918E-01  0.421E-02
  11.336  0.928E-01  0.467E-02
  11.346  0.947E-01  0.517E-02
  11.356  0.973E-01  0.568E-02
  11.366  0.101E+00  0.620E-02
  11.376  0.104E+00  0.671E-02
  11.386  0.108E+00  0.722E-02
  11.396  0.112E+00  0.770E-02
  11.406  0.117E+00  0.814E-02
  11.416  0.121E+00  0.854E-02
  11.426  0.124E+00  0.890E-02
  11.436  0.128E+00  0.920E-02
  11.446  0.130E+00  0.944E-02
  11.456  0.133E+00  0.962E-02
  11.466  0.135E+00  0.975E-02
  11.476  0.136E+00  0.982E-02
  11.486  0.137E+00  0.985E-02
  11.496  0.137E+00  0.984E-02
  11.506  0.138E+00  0.980E-02
  11.516  0.138E+00  0.974E-02
  11.526  0.138E+00  0.967E-02
  11.536  0.138E+00  0.959E-02
  11.546  0.138E+00  0.951E-02
  11.556  0.138E+00  0.943E-02
  11.566  0.138E+00  0.936E-02
  11.576  0.139E+00  0.929E-02
  11.586  0.139E+00  0.921E-02
  11.596  0.138E+00  0.914E-02
  11.606  0.138E+00  0.904E-02
  11.616  0.137E+00  0.893E-02
  11.626  0.136E+00  0.880E-02
  11.636  0.134E+00  0.863E-02
  11.646  0.131E+00  0.843E-02
  11.656  0.128E+00  0.818E-02
  11.666  0.124E+00  0.789E-02
  11.676  0.120E+00  0.756E-02
  11.686  0.115E+00  0.719E-02
  11.696  0.109E+00  0.679E-02
  11.706  0.104E+00  0.635E-02
  11.716  0.976E-01  0.590E-02
  11.726  0.918E-01  0.543E-02
  11.736  0.862E-01  0.495E-02
  11.746  0.810E-01  0.449E-02
  11.756  0.764E-01  0.403E-02
  11.766  0.726E-01  0.360E-02
  11.776  0.697E-01  0.320E-02
  11.786  0.678E-01  0.283E-02
  11.796  0.670E-01  0.251E-02
  11.806  0.673E-01  0.223E-02
  11.816  0.687E-01  0.199E-02
  11.826  0.712E-01  0.181E-02
  11.836  0.746E-01  0.167E-02
  11.846  0.789E-01  0.159E-02
  11.856  0.839E-01  0.155E-02
  11.866  0.894E-01  0.156E-02
  11.876  0.953E-01  0.162E-02
  11.886  0.101E+00  0.172E-02
  11.896  0.107E+00  0.186E-02
  11.906  0.113E+00  0.205E-02
  11.916  0.118E+00  0.228E-02
  11.926  0.123E+00  0.254E-02
  11.936  0.127E+00  0.284E-02
  11.946  0.130E+00  0.318E-02
  11.956  0.132E+00  0.354E-02
  11.966  0.133E+00  0.395E-02
  11.976  0.134E+00  0.438E-02
  11.986  0.133E+00  0.484E-02
  11.996  0.132E+00  0.532E-02
  12.006  0.130E+00  0.584E-02
  12.016  0.128E+00  0.637E-02
  12.026  0.125E+00  0.692E-02
  12.036  0.122E+00  0.749E-02
  12.046  0.119E+00  0.808E-02
  12.056  0.116E+00  0.866E-02
  12.066  0.114E+00  0.925E-02
  12.076  0.111E+00  0.984E-02
  12.086  0.109E+00  0.104E-01
  12.096  0.107E+00  0.110E-01
  12.106  0.105E+00  0.115E-01
  12.116  0.104E+00  0.120E-01
  12.126  0.102E+00  0.124E-01
  12.136  0.101E+00  0.128E-01
  12.146  0.100E+00  0.130E-01
  12.156  0.990E-01  0.132E-01
  12.166  0.976E-01  0.134E-01
  12.176  0.959E-01  0.134E-01
  12.186  0.939E-01  0.133E-01
  12.196  0.914E-01  0.131E-01
  12.206  0.885E-01  0.128E-01
  12.216  0.850E-01  0.124E-01
  12.226  0.812E-01  0.119E-01
  12.236  0.769E-01  0.113E-01
  12.246  0.722E-01  0.106E-01
  12.256  0.672E-01  0.992E-02
  12.266  0.620E-01  0.917E-02
  12.276  0.567E-01  0.839E-02
  12.286  0.513E-01  0.761E-02
  12.296  0.460E-01  0.683E-02
  12.306  0.409E-01  0.606E-02
  12.316  0.359E-01  0.533E-02
  12.326  0.312E-01  0.464E-02
  12.336  0.269E-01  0.399E-02
  12.346  0.229E-01  0.340E-02
  12.356  0.193E-01  0.287E-02
  12.366  0.161E-01  0.240E-02
  12.376  0.133E-01  0.198E-02
  12.386  0.109E-01  0.162E-02
  12.396  0.881E-02  0.131E-02
  12.406  0.705E-02  0.105E-02
  12.416  0.558E-02  0.828E-03
  12.426  0.437E-02  0.648E-03
  12.436  0.338E-02  0.502E-03
  12.446  0.259E-02  0.385E-03
  12.456  0.197E-02  0.292E-03
  12.466  0.148E-02  0.219E-03
  12.476  0.110E-02  0.162E-03
  12.486  0.804E-03  0.119E-03
  12.496  0.584E-03  0.867E-04
  12.506  0.420E-03  0.623E-04
  12.516  0.299E-03  0.443E-04
  12.526  0.210E-03  0.311E-04
  12.536  0.146E-03  0.217E-04
  12.546  0.101E-03  0.149E-04
  12.556  0.685E-04  0.102E-04
  12.566  0.461E-04  0.684E-05
  12.576  0.307E-04  0.456E-05
  12.586  0.203E-04  0.301E-05
  12.596  0.132E-04  0.196E-05
  12.606  0.853E-05  0.126E-05
