#  E (eV)   dos(E)     Int dos(E) EFermi =   -1.750 eV
 -22.546  0.0000E+00  0.0000E+00
 -22.536  0.2339E+00  0.1170E-02
 -22.526  0.2330E+00  0.4654E-02
 -22.516  0.2525E+00  0.7081E-02
 -22.506  0.2720E+00  0.9704E-02
 -22.496  0.2915E+00  0.1252E-01
 -22.486  0.3096E+00  0.1553E-01
 -22.476  0.2853E+00  0.1851E-01
 -22.466  0.2623E+00  0.2124E-01
 -22.456  0.2691E+00  0.2390E-01
 -22.446  0.2760E+00  0.2662E-01
 -22.436  0.2828E+00  0.2942E-01
 -22.426  0.2897E+00  0.3228E-01
 -22.416  0.2965E+00  0.3521E-01
 -22.406  0.2795E+00  0.3819E-01
 -22.396  0.2779E+00  0.4098E-01
 -22.386  0.2764E+00  0.4375E-01
 -22.376  0.2749E+00  0.4650E-01
 -22.366  0.2739E+00  0.4925E-01
 -22.356  0.2773E+00  0.5200E-01
 -22.346  0.2808E+00  0.5479E-01
 -22.336  0.2843E+00  0.5762E-01
 -22.326  0.2878E+00  0.6048E-01
 -22.316  0.2912E+00  0.6337E-01
 -22.306  0.2928E+00  0.6630E-01
 -22.296  0.2837E+00  0.6918E-01
 -22.286  0.2762E+00  0.7198E-01
 -22.276  0.2768E+00  0.7474E-01
 -22.266  0.2775E+00  0.7751E-01
 -22.256  0.2781E+00  0.8029E-01
 -22.246  0.2787E+00  0.8307E-01
 -22.236  0.2793E+00  0.8586E-01
 -22.226  0.2802E+00  0.8866E-01
 -22.216  0.2823E+00  0.9147E-01
 -22.206  0.2844E+00  0.9431E-01
 -22.196  0.2865E+00  0.9716E-01
 -22.186  0.2886E+00  0.1000E+00
 -22.176  0.2907E+00  0.1029E+00
 -22.166  0.2836E+00  0.1058E+00
 -22.156  0.2819E+00  0.1087E+00
 -22.146  0.2803E+00  0.1115E+00
 -22.136  0.2786E+00  0.1143E+00
 -22.126  0.2777E+00  0.1170E+00
 -22.116  0.2785E+00  0.1198E+00
 -22.106  0.2793E+00  0.1226E+00
 -22.096  0.2801E+00  0.1254E+00
 -22.086  0.2810E+00  0.1282E+00
 -22.076  0.2818E+00  0.1310E+00
 -22.066  0.2826E+00  0.1339E+00
 -22.056  0.2834E+00  0.1367E+00
 -22.046  0.2845E+00  0.1395E+00
 -22.036  0.2859E+00  0.1424E+00
 -22.026  0.2873E+00  0.1452E+00
 -22.016  0.2887E+00  0.1481E+00
 -22.006  0.2878E+00  0.1510E+00
 -21.996  0.2835E+00  0.1539E+00
 -21.986  0.2810E+00  0.1567E+00
 -21.976  0.2808E+00  0.1595E+00
 -21.966  0.2805E+00  0.1623E+00
 -21.956  0.2803E+00  0.1651E+00
 -21.946  0.2801E+00  0.1679E+00
 -21.936  0.2798E+00  0.1707E+00
 -21.926  0.2801E+00  0.1735E+00
 -21.916  0.2808E+00  0.1763E+00
 -21.906  0.2816E+00  0.1791E+00
 -21.896  0.2823E+00  0.1819E+00
 -21.886  0.2830E+00  0.1848E+00
 -21.876  0.2838E+00  0.1876E+00
 -21.866  0.2845E+00  0.1904E+00
 -21.856  0.2852E+00  0.1933E+00
 -21.846  0.2860E+00  0.1961E+00
 -21.836  0.2867E+00  0.1990E+00
 -21.826  0.2876E+00  0.2019E+00
 -21.816  0.2886E+00  0.2048E+00
 -21.806  0.2842E+00  0.2076E+00
 -21.796  0.2832E+00  0.2105E+00
 -21.786  0.2822E+00  0.2133E+00
 -21.776  0.2812E+00  0.2161E+00
 -21.766  0.2810E+00  0.2189E+00
 -21.756  0.2812E+00  0.2217E+00
 -21.746  0.2813E+00  0.2245E+00
 -21.736  0.2815E+00  0.2273E+00
 -21.726  0.2817E+00  0.2302E+00
 -21.716  0.2818E+00  0.2330E+00
 -21.706  0.2820E+00  0.2358E+00
 -21.696  0.2821E+00  0.2386E+00
 -21.686  0.2826E+00  0.2414E+00
 -21.676  0.2833E+00  0.2443E+00
 -21.666  0.2839E+00  0.2471E+00
 -21.656  0.2845E+00  0.2500E+00
 -21.646  0.2851E+00  0.2528E+00
 -21.636  0.2857E+00  0.2557E+00
 -21.626  0.2864E+00  0.2585E+00
 -21.616  0.2870E+00  0.2614E+00
 -21.606  0.2876E+00  0.2643E+00
 -21.596  0.2882E+00  0.2671E+00
 -21.586  0.2859E+00  0.2700E+00
 -21.576  0.2834E+00  0.2729E+00
 -21.566  0.2830E+00  0.2757E+00
 -21.556  0.2828E+00  0.2785E+00
 -21.546  0.2826E+00  0.2813E+00
 -21.536  0.2823E+00  0.2842E+00
 -21.526  0.2821E+00  0.2870E+00
 -21.516  0.2819E+00  0.2898E+00
 -21.506  0.2822E+00  0.2926E+00
 -21.496  0.2825E+00  0.2955E+00
 -21.486  0.2827E+00  0.2983E+00
 -21.476  0.2830E+00  0.3011E+00
 -21.466  0.2833E+00  0.3039E+00
 -21.456  0.2835E+00  0.3068E+00
 -21.446  0.2838E+00  0.3096E+00
 -21.436  0.2841E+00  0.3124E+00
 -21.426  0.2843E+00  0.3153E+00
 -21.416  0.2846E+00  0.3181E+00
 -21.406  0.2852E+00  0.3210E+00
 -21.396  0.2857E+00  0.3238E+00
 -21.386  0.2862E+00  0.3267E+00
 -21.376  0.2867E+00  0.3296E+00
 -21.366  0.2872E+00  0.3324E+00
 -21.356  0.2877E+00  0.3353E+00
 -21.346  0.2883E+00  0.3382E+00
 -21.336  0.2859E+00  0.3411E+00
 -21.326  0.2852E+00  0.3439E+00
 -21.316  0.2845E+00  0.3468E+00
 -21.306  0.2838E+00  0.3496E+00
 -21.296  0.2833E+00  0.3524E+00
 -21.286  0.2833E+00  0.3553E+00
 -21.276  0.2833E+00  0.3581E+00
 -21.266  0.2833E+00  0.3609E+00
 -21.256  0.2833E+00  0.3638E+00
 -21.246  0.2834E+00  0.3666E+00
 -21.236  0.2834E+00  0.3694E+00
 -21.226  0.2835E+00  0.3723E+00
 -21.216  0.2836E+00  0.3751E+00
 -21.206  0.2839E+00  0.3779E+00
 -21.196  0.2842E+00  0.3808E+00
 -21.186  0.2845E+00  0.3836E+00
 -21.176  0.2848E+00  0.3865E+00
 -21.166  0.2851E+00  0.3893E+00
 -21.156  0.2854E+00  0.3922E+00
 -21.146  0.2856E+00  0.3950E+00
 -21.136  0.2859E+00  0.3979E+00
 -21.126  0.2862E+00  0.4008E+00
 -21.116  0.2865E+00  0.4036E+00
 -21.106  0.2868E+00  0.4065E+00
 -21.096  0.2872E+00  0.4094E+00
 -21.086  0.2876E+00  0.4122E+00
 -21.076  0.2881E+00  0.4151E+00
 -21.066  0.2885E+00  0.4180E+00
 -21.056  0.2873E+00  0.4209E+00
 -21.046  0.2857E+00  0.4237E+00
 -21.036  0.2853E+00  0.4266E+00
 -21.026  0.2851E+00  0.4294E+00
 -21.016  0.2849E+00  0.4323E+00
 -21.006  0.2846E+00  0.4351E+00
 -20.996  0.2844E+00  0.4380E+00
 -20.986  0.2842E+00  0.4408E+00
 -20.976  0.2843E+00  0.4437E+00
 -20.966  0.2844E+00  0.4465E+00
 -20.956  0.2845E+00  0.4494E+00
 -20.946  0.2846E+00  0.4522E+00
 -20.936  0.2847E+00  0.4550E+00
 -20.926  0.2848E+00  0.4579E+00
 -20.916  0.2850E+00  0.4607E+00
 -20.906  0.2851E+00  0.4636E+00
 -20.896  0.2852E+00  0.4664E+00
 -20.886  0.2854E+00  0.4693E+00
 -20.876  0.2857E+00  0.4722E+00
 -20.866  0.2860E+00  0.4750E+00
 -20.856  0.2862E+00  0.4779E+00
 -20.846  0.2865E+00  0.4807E+00
 -20.836  0.2868E+00  0.4836E+00
 -20.826  0.2871E+00  0.4865E+00
 -20.816  0.2873E+00  0.4893E+00
 -20.806  0.2876E+00  0.4922E+00
 -20.796  0.2879E+00  0.4951E+00
 -20.786  0.2882E+00  0.4980E+00
 -20.776  0.2885E+00  0.5009E+00
 -20.766  0.2887E+00  0.5037E+00
 -20.756  0.2890E+00  0.5066E+00
 -20.746  0.2873E+00  0.5095E+00
 -20.736  0.2868E+00  0.5124E+00
 -20.726  0.2864E+00  0.5153E+00
 -20.716  0.2859E+00  0.5181E+00
 -20.706  0.2857E+00  0.5210E+00
 -20.696  0.2857E+00  0.5238E+00
 -20.686  0.2857E+00  0.5267E+00
 -20.676  0.2857E+00  0.5295E+00
 -20.666  0.2857E+00  0.5324E+00
 -20.656  0.2857E+00  0.5353E+00
 -20.646  0.2856E+00  0.5381E+00
 -20.636  0.2856E+00  0.5410E+00
 -20.626  0.2857E+00  0.5438E+00
 -20.616  0.2859E+00  0.5467E+00
 -20.606  0.2860E+00  0.5495E+00
 -20.596  0.2861E+00  0.5524E+00
 -20.586  0.2863E+00  0.5553E+00
 -20.576  0.2864E+00  0.5581E+00
 -20.566  0.2866E+00  0.5610E+00
 -20.556  0.2868E+00  0.5639E+00
 -20.546  0.2869E+00  0.5667E+00
 -20.536  0.2871E+00  0.5696E+00
 -20.526  0.2873E+00  0.5725E+00
 -20.516  0.2874E+00  0.5753E+00
 -20.506  0.2877E+00  0.5782E+00
 -20.496  0.2880E+00  0.5811E+00
 -20.486  0.2882E+00  0.5840E+00
 -20.476  0.2885E+00  0.5869E+00
 -20.466  0.2887E+00  0.5898E+00
 -20.456  0.2890E+00  0.5926E+00
 -20.446  0.2892E+00  0.5955E+00
 -20.436  0.2895E+00  0.5984E+00
 -20.426  0.2898E+00  0.6013E+00
 -20.416  0.2895E+00  0.6042E+00
 -20.406  0.2884E+00  0.6071E+00
 -20.396  0.2877E+00  0.6100E+00
 -20.386  0.2875E+00  0.6129E+00
 -20.376  0.2873E+00  0.6157E+00
 -20.366  0.2871E+00  0.6186E+00
 -20.356  0.2869E+00  0.6215E+00
 -20.346  0.2868E+00  0.6243E+00
 -20.336  0.2868E+00  0.6272E+00
 -20.326  0.2869E+00  0.6301E+00
 -20.316  0.2869E+00  0.6330E+00
 -20.306  0.2870E+00  0.6358E+00
 -20.296  0.2871E+00  0.6387E+00
 -20.286  0.2871E+00  0.6416E+00
 -20.276  0.2872E+00  0.6444E+00
 -20.266  0.2873E+00  0.6473E+00
 -20.256  0.2873E+00  0.6502E+00
 -20.246  0.2874E+00  0.6531E+00
 -20.236  0.2876E+00  0.6559E+00
 -20.226  0.2877E+00  0.6588E+00
 -20.216  0.2879E+00  0.6617E+00
 -20.206  0.2880E+00  0.6646E+00
 -20.196  0.2882E+00  0.6674E+00
 -20.186  0.2883E+00  0.6703E+00
 -20.176  0.2885E+00  0.6732E+00
 -20.166  0.2887E+00  0.6761E+00
 -20.156  0.2888E+00  0.6790E+00
 -20.146  0.2890E+00  0.6819E+00
 -20.136  0.2892E+00  0.6848E+00
 -20.126  0.2894E+00  0.6877E+00
 -20.116  0.2896E+00  0.6906E+00
 -20.106  0.2897E+00  0.6934E+00
 -20.096  0.2900E+00  0.6963E+00
 -20.086  0.2902E+00  0.6992E+00
 -20.076  0.2905E+00  0.7022E+00
 -20.066  0.2907E+00  0.7051E+00
 -20.056  0.2909E+00  0.7080E+00
 -20.046  0.2898E+00  0.7109E+00
 -20.036  0.2894E+00  0.7138E+00
 -20.026  0.2891E+00  0.7167E+00
 -20.016  0.2888E+00  0.7195E+00
 -20.006  0.2886E+00  0.7224E+00
 -19.996  0.2886E+00  0.7253E+00
 -19.986  0.2885E+00  0.7282E+00
 -19.976  0.2885E+00  0.7311E+00
 -19.966  0.2884E+00  0.7340E+00
 -19.956  0.2884E+00  0.7369E+00
 -19.946  0.2884E+00  0.7397E+00
 -19.936  0.2883E+00  0.7426E+00
 -19.926  0.2884E+00  0.7455E+00
 -19.916  0.2885E+00  0.7484E+00
 -19.906  0.2886E+00  0.7513E+00
 -19.896  0.2887E+00  0.7542E+00
 -19.886  0.2888E+00  0.7571E+00
 -19.876  0.2889E+00  0.7599E+00
 -19.866  0.2890E+00  0.7628E+00
 -19.856  0.2892E+00  0.7657E+00
 -19.846  0.2893E+00  0.7686E+00
 -19.836  0.2894E+00  0.7715E+00
 -19.826  0.2895E+00  0.7744E+00
 -19.816  0.2896E+00  0.7773E+00
 -19.806  0.2898E+00  0.7802E+00
 -19.796  0.2899E+00  0.7831E+00
 -19.786  0.2901E+00  0.7860E+00
 -19.776  0.2902E+00  0.7889E+00
 -19.766  0.2904E+00  0.7918E+00
 -19.756  0.2906E+00  0.7947E+00
 -19.746  0.2907E+00  0.7976E+00
 -19.736  0.2909E+00  0.8005E+00
 -19.726  0.2911E+00  0.8034E+00
 -19.716  0.2912E+00  0.8063E+00
 -19.706  0.2914E+00  0.8093E+00
 -19.696  0.2916E+00  0.8122E+00
 -19.686  0.2918E+00  0.8151E+00
 -19.676  0.2919E+00  0.8180E+00
 -19.666  0.2921E+00  0.8209E+00
 -19.656  0.2915E+00  0.8238E+00
 -19.646  0.2907E+00  0.8268E+00
 -19.636  0.2906E+00  0.8297E+00
 -19.626  0.2905E+00  0.8326E+00
 -19.616  0.2904E+00  0.8355E+00
 -19.606  0.2903E+00  0.8384E+00
 -19.596  0.2902E+00  0.8413E+00
 -19.586  0.2901E+00  0.8442E+00
 -19.576  0.2901E+00  0.8471E+00
 -19.566  0.2902E+00  0.8500E+00
 -19.556  0.2902E+00  0.8529E+00
 -19.546  0.2902E+00  0.8558E+00
 -19.536  0.2903E+00  0.8587E+00
 -19.526  0.2903E+00  0.8616E+00
 -19.516  0.2903E+00  0.8645E+00
 -19.506  0.2904E+00  0.8674E+00
 -19.496  0.2904E+00  0.8703E+00
 -19.486  0.2905E+00  0.8732E+00
 -19.476  0.2906E+00  0.8761E+00
 -19.466  0.2907E+00  0.8790E+00
 -19.456  0.2908E+00  0.8819E+00
 -19.446  0.2909E+00  0.8848E+00
 -19.436  0.2910E+00  0.8877E+00
 -19.426  0.2912E+00  0.8906E+00
 -19.416  0.2913E+00  0.8936E+00
 -19.406  0.2914E+00  0.8965E+00
 -19.396  0.2915E+00  0.8994E+00
 -19.386  0.2917E+00  0.9023E+00
 -19.376  0.2918E+00  0.9052E+00
 -19.366  0.2919E+00  0.9081E+00
 -19.356  0.2920E+00  0.9111E+00
 -19.346  0.2922E+00  0.9140E+00
 -19.336  0.2924E+00  0.9169E+00
 -19.326  0.2925E+00  0.9198E+00
 -19.316  0.2927E+00  0.9228E+00
 -19.306  0.2928E+00  0.9257E+00
 -19.296  0.2930E+00  0.9286E+00
 -19.286  0.2932E+00  0.9315E+00
 -19.276  0.2933E+00  0.9345E+00
 -19.266  0.2935E+00  0.9374E+00
 -19.256  0.2936E+00  0.9403E+00
 -19.246  0.2938E+00  0.9433E+00
 -19.236  0.2929E+00  0.9462E+00
 -19.226  0.2927E+00  0.9491E+00
 -19.216  0.2924E+00  0.9521E+00
 -19.206  0.2922E+00  0.9550E+00
 -19.196  0.2921E+00  0.9579E+00
 -19.186  0.2921E+00  0.9608E+00
 -19.176  0.2921E+00  0.9638E+00
 -19.166  0.2921E+00  0.9667E+00
 -19.156  0.2921E+00  0.9696E+00
 -19.146  0.2921E+00  0.9725E+00
 -19.136  0.2921E+00  0.9754E+00
 -19.126  0.2921E+00  0.9784E+00
 -19.116  0.2922E+00  0.9813E+00
 -19.106  0.2923E+00  0.9842E+00
 -19.096  0.2924E+00  0.9871E+00
 -19.086  0.2924E+00  0.9901E+00
 -19.076  0.2925E+00  0.9930E+00
 -19.066  0.2926E+00  0.9959E+00
 -19.056  0.2927E+00  0.9988E+00
 -19.046  0.2927E+00  0.1002E+01
 -19.036  0.2928E+00  0.1005E+01
 -19.026  0.2929E+00  0.1008E+01
 -19.016  0.2930E+00  0.1011E+01
 -19.006  0.2930E+00  0.1013E+01
 -18.996  0.2932E+00  0.1016E+01
 -18.986  0.2933E+00  0.1019E+01
 -18.976  0.2934E+00  0.1022E+01
 -18.966  0.2935E+00  0.1025E+01
 -18.956  0.2936E+00  0.1028E+01
 -18.946  0.2938E+00  0.1031E+01
 -18.936  0.2939E+00  0.1034E+01
 -18.926  0.2940E+00  0.1037E+01
 -18.916  0.2942E+00  0.1040E+01
 -18.906  0.2943E+00  0.1043E+01
 -18.896  0.2944E+00  0.1046E+01
 -18.886  0.2946E+00  0.1049E+01
 -18.876  0.2947E+00  0.1052E+01
 -18.866  0.2948E+00  0.1055E+01
 -18.856  0.2950E+00  0.1058E+01
 -18.846  0.2951E+00  0.1061E+01
 -18.836  0.2953E+00  0.1063E+01
 -18.826  0.2955E+00  0.1066E+01
 -18.816  0.2956E+00  0.1069E+01
 -18.806  0.2958E+00  0.1072E+01
 -18.796  0.2953E+00  0.1075E+01
 -18.786  0.2948E+00  0.1078E+01
 -18.776  0.2947E+00  0.1081E+01
 -18.766  0.2947E+00  0.1084E+01
 -18.756  0.2946E+00  0.1087E+01
 -18.746  0.2945E+00  0.1090E+01
 -18.736  0.2945E+00  0.1093E+01
 -18.726  0.2944E+00  0.1096E+01
 -18.716  0.2944E+00  0.1099E+01
 -18.706  0.2945E+00  0.1102E+01
 -18.696  0.2945E+00  0.1105E+01
 -18.686  0.2946E+00  0.1108E+01
 -18.676  0.2946E+00  0.1111E+01
 -18.666  0.2946E+00  0.1114E+01
 -18.656  0.2947E+00  0.1117E+01
 -18.646  0.2948E+00  0.1119E+01
 -18.636  0.2948E+00  0.1122E+01
 -18.626  0.2949E+00  0.1125E+01
 -18.616  0.2950E+00  0.1128E+01
 -18.606  0.2951E+00  0.1131E+01
 -18.596  0.2952E+00  0.1134E+01
 -18.586  0.2953E+00  0.1137E+01
 -18.576  0.2954E+00  0.1140E+01
 -18.566  0.2955E+00  0.1143E+01
 -18.556  0.2956E+00  0.1146E+01
 -18.546  0.2957E+00  0.1149E+01
 -18.536  0.2958E+00  0.1152E+01
 -18.526  0.2959E+00  0.1155E+01
 -18.516  0.2960E+00  0.1158E+01
 -18.506  0.2961E+00  0.1161E+01
 -18.496  0.2962E+00  0.1164E+01
 -18.486  0.2963E+00  0.1167E+01
 -18.476  0.2965E+00  0.1170E+01
 -18.466  0.2966E+00  0.1173E+01
 -18.456  0.2967E+00  0.1176E+01
 -18.446  0.2968E+00  0.1179E+01
 -18.436  0.2970E+00  0.1182E+01
 -18.426  0.2971E+00  0.1185E+01
 -18.416  0.2972E+00  0.1188E+01
 -18.406  0.2974E+00  0.1191E+01
 -18.396  0.2975E+00  0.1193E+01
 -18.386  0.2977E+00  0.1196E+01
 -18.376  0.2978E+00  0.1199E+01
 -18.366  0.2979E+00  0.1202E+01
 -18.356  0.2981E+00  0.1205E+01
 -18.346  0.2982E+00  0.1208E+01
 -18.336  0.2984E+00  0.1211E+01
 -18.326  0.2978E+00  0.1214E+01
 -18.316  0.2977E+00  0.1217E+01
 -18.306  0.2975E+00  0.1220E+01
 -18.296  0.2974E+00  0.1223E+01
 -18.286  0.2974E+00  0.1226E+01
 -18.276  0.2974E+00  0.1229E+01
 -18.266  0.2975E+00  0.1232E+01
 -18.256  0.2975E+00  0.1235E+01
 -18.246  0.2975E+00  0.1238E+01
 -18.236  0.2975E+00  0.1241E+01
 -18.226  0.2976E+00  0.1244E+01
 -18.216  0.2976E+00  0.1247E+01
 -18.206  0.2977E+00  0.1250E+01
 -18.196  0.2978E+00  0.1253E+01
 -18.186  0.2978E+00  0.1256E+01
 -18.176  0.2979E+00  0.1259E+01
 -18.166  0.2980E+00  0.1262E+01
 -18.156  0.2981E+00  0.1265E+01
 -18.146  0.2982E+00  0.1268E+01
 -18.136  0.2982E+00  0.1271E+01
 -18.126  0.2983E+00  0.1274E+01
 -18.116  0.2984E+00  0.1277E+01
 -18.106  0.2985E+00  0.1280E+01
 -18.096  0.2986E+00  0.1283E+01
 -18.086  0.2987E+00  0.1286E+01
 -18.076  0.2989E+00  0.1289E+01
 -18.066  0.2990E+00  0.1292E+01
 -18.056  0.2991E+00  0.1295E+01
 -18.046  0.2992E+00  0.1298E+01
 -18.036  0.2994E+00  0.1301E+01
 -18.026  0.2995E+00  0.1304E+01
 -18.016  0.2996E+00  0.1307E+01
 -18.006  0.2997E+00  0.1310E+01
 -17.996  0.2999E+00  0.1313E+01
 -17.986  0.3000E+00  0.1316E+01
 -17.976  0.3001E+00  0.1319E+01
 -17.966  0.3002E+00  0.1322E+01
 -17.956  0.3004E+00  0.1325E+01
 -17.946  0.3005E+00  0.1328E+01
 -17.936  0.3006E+00  0.1331E+01
 -17.926  0.3008E+00  0.1334E+01
 -17.916  0.3009E+00  0.1337E+01
 -17.906  0.3011E+00  0.1340E+01
 -17.896  0.3012E+00  0.1343E+01
 -17.886  0.3014E+00  0.1346E+01
 -17.876  0.3015E+00  0.1349E+01
 -17.866  0.3017E+00  0.1352E+01
 -17.856  0.3018E+00  0.1355E+01
 -17.846  0.3019E+00  0.1358E+01
 -17.836  0.3016E+00  0.1361E+01
 -17.826  0.3014E+00  0.1364E+01
 -17.816  0.3014E+00  0.1367E+01
 -17.806  0.3015E+00  0.1370E+01
 -17.796  0.3015E+00  0.1373E+01
 -17.786  0.3015E+00  0.1376E+01
 -17.776  0.3015E+00  0.1379E+01
 -17.766  0.3016E+00  0.1382E+01
 -17.756  0.3017E+00  0.1385E+01
 -17.746  0.3018E+00  0.1388E+01
 -17.736  0.3019E+00  0.1391E+01
 -17.726  0.3020E+00  0.1394E+01
 -17.716  0.3021E+00  0.1397E+01
 -17.706  0.3022E+00  0.1400E+01
 -17.696  0.3023E+00  0.1403E+01
 -17.686  0.3024E+00  0.1406E+01
 -17.676  0.3025E+00  0.1409E+01
 -17.666  0.3026E+00  0.1412E+01
 -17.656  0.3027E+00  0.1415E+01
 -17.646  0.3029E+00  0.1418E+01
 -17.636  0.3030E+00  0.1421E+01
 -17.626  0.3031E+00  0.1424E+01
 -17.616  0.3033E+00  0.1427E+01
 -17.606  0.3034E+00  0.1430E+01
 -17.596  0.3035E+00  0.1433E+01
 -17.586  0.3037E+00  0.1436E+01
 -17.576  0.3038E+00  0.1440E+01
 -17.566  0.3039E+00  0.1443E+01
 -17.556  0.3041E+00  0.1446E+01
 -17.546  0.3042E+00  0.1449E+01
 -17.536  0.3044E+00  0.1452E+01
 -17.526  0.3046E+00  0.1455E+01
 -17.516  0.3048E+00  0.1458E+01
 -17.506  0.3050E+00  0.1461E+01
 -17.496  0.3052E+00  0.1464E+01
 -17.486  0.3054E+00  0.1467E+01
 -17.476  0.3056E+00  0.1470E+01
 -17.466  0.3057E+00  0.1473E+01
 -17.456  0.3059E+00  0.1476E+01
 -17.446  0.3061E+00  0.1479E+01
 -17.436  0.3063E+00  0.1482E+01
 -17.426  0.3065E+00  0.1485E+01
 -17.416  0.3067E+00  0.1488E+01
 -17.406  0.3069E+00  0.1491E+01
 -17.396  0.3071E+00  0.1494E+01
 -17.386  0.3073E+00  0.1498E+01
 -17.376  0.3075E+00  0.1501E+01
 -17.366  0.3077E+00  0.1504E+01
 -17.356  0.3079E+00  0.1507E+01
 -17.346  0.3082E+00  0.1510E+01
 -17.336  0.3084E+00  0.1513E+01
 -17.326  0.3082E+00  0.1516E+01
 -17.316  0.3083E+00  0.1519E+01
 -17.306  0.3084E+00  0.1522E+01
 -17.296  0.3085E+00  0.1525E+01
 -17.286  0.3086E+00  0.1528E+01
 -17.276  0.3088E+00  0.1531E+01
 -17.266  0.3091E+00  0.1535E+01
 -17.256  0.3093E+00  0.1538E+01
 -17.246  0.3095E+00  0.1541E+01
 -17.236  0.3098E+00  0.1544E+01
 -17.226  0.3100E+00  0.1547E+01
 -17.216  0.3103E+00  0.1550E+01
 -17.206  0.3105E+00  0.1553E+01
 -17.196  0.3108E+00  0.1556E+01
 -17.186  0.3111E+00  0.1559E+01
 -17.176  0.3114E+00  0.1562E+01
 -17.166  0.3117E+00  0.1566E+01
 -17.156  0.3121E+00  0.1569E+01
 -17.146  0.3125E+00  0.1572E+01
 -17.136  0.3128E+00  0.1575E+01
 -17.126  0.3132E+00  0.1578E+01
 -17.116  0.3135E+00  0.1581E+01
 -17.106  0.3139E+00  0.1584E+01
 -17.096  0.3143E+00  0.1587E+01
 -17.086  0.3147E+00  0.1591E+01
 -17.076  0.3151E+00  0.1594E+01
 -17.066  0.3155E+00  0.1597E+01
 -17.056  0.3159E+00  0.1600E+01
 -17.046  0.3163E+00  0.1603E+01
 -17.036  0.3167E+00  0.1606E+01
 -17.026  0.3171E+00  0.1610E+01
 -17.016  0.3175E+00  0.1613E+01
 -17.006  0.3179E+00  0.1616E+01
 -16.996  0.3184E+00  0.1619E+01
 -16.986  0.3191E+00  0.1622E+01
 -16.976  0.3199E+00  0.1625E+01
 -16.966  0.3206E+00  0.1629E+01
 -16.956  0.3214E+00  0.1632E+01
 -16.946  0.3222E+00  0.1635E+01
 -16.936  0.3237E+00  0.1638E+01
 -16.926  0.3252E+00  0.1642E+01
 -16.916  0.3267E+00  0.1645E+01
 -16.906  0.3282E+00  0.1648E+01
 -16.896  0.3296E+00  0.1651E+01
 -16.886  0.3311E+00  0.1655E+01
 -16.876  0.3326E+00  0.1658E+01
 -16.866  0.3341E+00  0.1661E+01
 -16.856  0.3356E+00  0.1665E+01
 -16.846  0.3371E+00  0.1668E+01
 -16.836  0.3385E+00  0.1671E+01
 -16.826  0.3400E+00  0.1675E+01
 -16.816  0.3415E+00  0.1678E+01
 -16.806  0.3430E+00  0.1682E+01
 -16.796  0.3443E+00  0.1685E+01
 -16.786  0.3461E+00  0.1689E+01
 -16.776  0.3483E+00  0.1692E+01
 -16.766  0.3506E+00  0.1696E+01
 -16.756  0.3528E+00  0.1699E+01
 -16.746  0.3551E+00  0.1703E+01
 -16.736  0.3573E+00  0.1706E+01
 -16.726  0.3596E+00  0.1710E+01
 -16.716  0.3619E+00  0.1713E+01
 -16.706  0.3643E+00  0.1717E+01
 -16.696  0.4661E+00  0.1722E+01
 -16.686  0.4556E+00  0.1726E+01
 -16.676  0.4452E+00  0.1731E+01
 -16.666  0.4347E+00  0.1735E+01
 -16.656  0.4243E+00  0.1739E+01
 -16.646  0.4139E+00  0.1744E+01
 -16.636  0.4036E+00  0.1748E+01
 -16.626  0.3933E+00  0.1752E+01
 -16.616  0.3829E+00  0.1756E+01
 -16.606  0.3726E+00  0.1759E+01
 -16.596  0.4848E+00  0.1764E+01
 -16.586  0.4547E+00  0.1769E+01
 -16.576  0.4247E+00  0.1773E+01
 -16.566  0.3947E+00  0.1777E+01
 -16.556  0.3679E+00  0.1781E+01
 -16.546  0.3451E+00  0.1785E+01
 -16.536  0.3224E+00  0.1788E+01
 -16.526  0.3002E+00  0.1791E+01
 -16.516  0.2785E+00  0.1794E+01
 -16.506  0.2680E+00  0.1797E+01
 -16.496  0.2664E+00  0.1799E+01
 -16.486  0.2647E+00  0.1802E+01
 -16.476  0.2631E+00  0.1805E+01
 -16.466  0.2615E+00  0.1807E+01
 -16.456  0.2598E+00  0.1810E+01
 -16.446  0.2582E+00  0.1813E+01
 -16.436  0.2566E+00  0.1815E+01
 -16.426  0.2549E+00  0.1818E+01
 -16.416  0.2533E+00  0.1820E+01
 -16.406  0.2517E+00  0.1823E+01
 -16.396  0.4790E+00  0.1827E+01
 -16.386  0.3949E+00  0.1831E+01
 -16.376  0.3108E+00  0.1835E+01
 -16.366  0.2267E+00  0.1837E+01
 -16.356  0.2174E+00  0.1840E+01
 -16.346  0.2152E+00  0.1842E+01
 -16.336  0.2130E+00  0.1844E+01
 -16.326  0.2108E+00  0.1846E+01
 -16.316  0.2086E+00  0.1848E+01
 -16.306  0.2064E+00  0.1850E+01
 -16.296  0.2042E+00  0.1852E+01
 -16.286  0.2020E+00  0.1854E+01
 -16.276  0.1997E+00  0.1856E+01
 -16.266  0.1975E+00  0.1858E+01
 -16.256  0.1958E+00  0.1860E+01
 -16.246  0.1938E+00  0.1862E+01
 -16.236  0.1918E+00  0.1864E+01
 -16.226  0.1900E+00  0.1866E+01
 -16.216  0.1882E+00  0.1868E+01
 -16.206  0.1864E+00  0.1870E+01
 -16.196  0.1846E+00  0.1872E+01
 -16.186  0.1829E+00  0.1873E+01
 -16.176  0.1811E+00  0.1875E+01
 -16.166  0.1802E+00  0.1877E+01
 -16.156  0.1802E+00  0.1879E+01
 -16.146  0.1802E+00  0.1881E+01
 -16.136  0.1803E+00  0.1883E+01
 -16.126  0.1803E+00  0.1884E+01
 -16.116  0.2898E+00  0.1886E+01
 -16.106  0.5030E+00  0.1890E+01
 -16.096  0.1685E+00  0.1894E+01
 -16.086  0.1668E+00  0.1896E+01
 -16.076  0.1650E+00  0.1897E+01
 -16.066  0.1632E+00  0.1899E+01
 -16.056  0.1614E+00  0.1901E+01
 -16.046  0.1597E+00  0.1902E+01
 -16.036  0.1579E+00  0.1904E+01
 -16.026  0.1606E+00  0.1905E+01
 -16.016  0.1640E+00  0.1907E+01
 -16.006  0.1673E+00  0.1909E+01
 -15.996  0.1707E+00  0.1910E+01
 -15.986  0.1740E+00  0.1912E+01
 -15.976  0.1819E+00  0.1914E+01
 -15.966  0.1980E+00  0.1916E+01
 -15.956  0.2142E+00  0.1918E+01
 -15.946  0.2304E+00  0.1920E+01
 -15.936  0.2466E+00  0.1922E+01
 -15.926  0.2628E+00  0.1925E+01
 -15.916  0.2790E+00  0.1928E+01
 -15.906  0.2952E+00  0.1930E+01
 -15.896  0.3114E+00  0.1933E+01
 -15.886  0.3276E+00  0.1937E+01
 -15.876  0.3438E+00  0.1940E+01
 -15.866  0.3599E+00  0.1944E+01
 -15.856  0.2486E+00  0.1947E+01
 -15.846  0.2496E+00  0.1950E+01
 -15.836  0.2506E+00  0.1952E+01
 -15.826  0.2517E+00  0.1955E+01
 -15.816  0.2527E+00  0.1957E+01
 -15.806  0.2807E+00  0.1960E+01
 -15.796  0.3127E+00  0.1963E+01
 -15.786  0.3446E+00  0.1966E+01
 -15.776  0.3812E+00  0.1970E+01
 -15.766  0.4251E+00  0.1974E+01
 -15.756  0.4691E+00  0.1978E+01
 -15.746  0.3180E+00  0.1982E+01
 -15.736  0.3295E+00  0.1986E+01
 -15.726  0.3411E+00  0.1989E+01
 -15.716  0.3561E+00  0.1993E+01
 -15.706  0.3785E+00  0.1996E+01
 -15.696  0.2890E+00  0.1999E+01
 -15.686  0.2889E+00  0.2002E+01
 -15.676  0.2887E+00  0.2005E+01
 -15.666  0.2885E+00  0.2008E+01
 -15.656  0.2883E+00  0.2011E+01
 -15.646  0.2881E+00  0.2014E+01
 -15.636  0.2879E+00  0.2017E+01
 -15.626  0.2878E+00  0.2020E+01
 -15.616  0.2876E+00  0.2022E+01
 -15.606  0.2874E+00  0.2025E+01
 -15.596  0.2872E+00  0.2028E+01
 -15.586  0.2870E+00  0.2031E+01
 -15.576  0.2868E+00  0.2034E+01
 -15.566  0.2867E+00  0.2037E+01
 -15.556  0.2868E+00  0.2040E+01
 -15.546  0.2869E+00  0.2042E+01
 -15.536  0.2972E+00  0.2050E+01
 -15.526  0.2960E+00  0.2053E+01
 -15.516  0.2948E+00  0.2056E+01
 -15.506  0.2942E+00  0.2059E+01
 -15.496  0.2937E+00  0.2062E+01
 -15.486  0.2931E+00  0.2065E+01
 -15.476  0.2926E+00  0.2068E+01
 -15.466  0.2920E+00  0.2071E+01
 -15.456  0.2915E+00  0.2074E+01
 -15.446  0.2909E+00  0.2077E+01
 -15.436  0.2904E+00  0.2079E+01
 -15.426  0.2898E+00  0.2082E+01
 -15.416  0.2893E+00  0.2085E+01
 -15.406  0.2887E+00  0.2088E+01
 -15.396  0.2882E+00  0.2091E+01
 -15.386  0.2876E+00  0.2094E+01
 -15.376  0.2871E+00  0.2097E+01
 -15.366  0.2865E+00  0.2100E+01
 -15.356  0.2864E+00  0.2103E+01
 -15.346  0.2867E+00  0.2105E+01
 -15.336  0.2892E+00  0.2108E+01
 -15.326  0.2937E+00  0.2111E+01
 -15.316  0.2982E+00  0.2114E+01
 -15.306  0.3027E+00  0.2117E+01
 -15.296  0.3072E+00  0.2120E+01
 -15.286  0.3116E+00  0.2123E+01
 -15.276  0.3161E+00  0.2126E+01
 -15.266  0.3206E+00  0.2130E+01
 -15.256  0.3251E+00  0.2133E+01
 -15.246  0.3295E+00  0.2136E+01
 -15.236  0.3340E+00  0.2139E+01
 -15.226  0.4965E+00  0.2143E+01
 -15.216  0.4122E+00  0.2148E+01
 -15.206  0.3747E+00  0.2152E+01
 -15.196  0.3373E+00  0.2156E+01
 -15.186  0.2998E+00  0.2159E+01
 -15.176  0.2933E+00  0.2162E+01
 -15.166  0.2926E+00  0.2165E+01
 -15.156  0.2919E+00  0.2168E+01
 -15.146  0.2912E+00  0.2170E+01
 -15.136  0.2905E+00  0.2173E+01
 -15.126  0.2898E+00  0.2176E+01
 -15.116  0.2891E+00  0.2179E+01
 -15.106  0.2889E+00  0.2182E+01
 -15.096  0.2893E+00  0.2185E+01
 -15.086  0.2898E+00  0.2188E+01
 -15.076  0.2902E+00  0.2191E+01
 -15.066  0.2907E+00  0.2194E+01
 -15.056  0.2911E+00  0.2197E+01
 -15.046  0.2916E+00  0.2199E+01
 -15.036  0.2920E+00  0.2202E+01
 -15.026  0.2925E+00  0.2205E+01
 -15.016  0.2929E+00  0.2208E+01
 -15.006  0.2934E+00  0.2211E+01
 -14.996  0.2938E+00  0.2214E+01
 -14.986  0.2943E+00  0.2217E+01
 -14.976  0.2948E+00  0.2220E+01
 -14.966  0.2952E+00  0.2223E+01
 -14.956  0.2957E+00  0.2226E+01
 -14.946  0.2961E+00  0.2229E+01
 -14.936  0.2966E+00  0.2232E+01
 -14.926  0.2970E+00  0.2235E+01
 -14.916  0.2975E+00  0.2238E+01
 -14.906  0.2981E+00  0.2241E+01
 -14.896  0.2986E+00  0.2244E+01
 -14.886  0.2992E+00  0.2247E+01
 -14.876  0.2997E+00  0.2250E+01
 -14.866  0.3003E+00  0.2253E+01
 -14.856  0.3008E+00  0.2256E+01
 -14.846  0.4285E+00  0.2259E+01
 -14.836  0.4056E+00  0.2263E+01
 -14.826  0.3827E+00  0.2267E+01
 -14.816  0.3597E+00  0.2271E+01
 -14.806  0.3372E+00  0.2274E+01
 -14.796  0.3184E+00  0.2278E+01
 -14.786  0.3121E+00  0.2281E+01
 -14.776  0.3165E+00  0.2284E+01
 -14.766  0.3221E+00  0.2287E+01
 -14.756  0.3282E+00  0.2290E+01
 -14.746  0.3343E+00  0.2294E+01
 -14.736  0.3404E+00  0.2297E+01
 -14.726  0.3465E+00  0.2301E+01
 -14.716  0.3526E+00  0.2304E+01
 -14.706  0.3587E+00  0.2308E+01
 -14.696  0.3648E+00  0.2311E+01
 -14.686  0.3709E+00  0.2315E+01
 -14.676  0.3770E+00  0.2319E+01
 -14.666  0.3831E+00  0.2322E+01
 -14.656  0.3892E+00  0.2326E+01
 -14.646  0.3953E+00  0.2330E+01
 -14.636  0.4015E+00  0.2334E+01
 -14.626  0.4077E+00  0.2338E+01
 -14.616  0.4139E+00  0.2342E+01
 -14.606  0.4201E+00  0.2346E+01
 -14.596  0.4264E+00  0.2351E+01
 -14.586  0.4326E+00  0.2355E+01
 -14.576  0.4388E+00  0.2359E+01
 -14.566  0.4451E+00  0.2364E+01
 -14.556  0.3589E+00  0.2368E+01
 -14.546  0.3575E+00  0.2372E+01
 -14.536  0.3562E+00  0.2375E+01
 -14.526  0.3548E+00  0.2379E+01
 -14.516  0.3535E+00  0.2382E+01
 -14.506  0.3521E+00  0.2386E+01
 -14.496  0.3508E+00  0.2389E+01
 -14.486  0.3494E+00  0.2393E+01
 -14.476  0.3481E+00  0.2396E+01
 -14.466  0.3467E+00  0.2400E+01
 -14.456  0.3454E+00  0.2403E+01
 -14.446  0.3440E+00  0.2407E+01
 -14.436  0.3427E+00  0.2410E+01
 -14.426  0.3414E+00  0.2414E+01
 -14.416  0.3401E+00  0.2417E+01
 -14.406  0.3389E+00  0.2420E+01
 -14.396  0.3376E+00  0.2424E+01
 -14.386  0.3364E+00  0.2427E+01
 -14.376  0.3352E+00  0.2430E+01
 -14.366  0.3340E+00  0.2434E+01
 -14.356  0.3328E+00  0.2437E+01
 -14.346  0.3316E+00  0.2440E+01
 -14.336  0.3304E+00  0.2444E+01
 -14.326  0.3291E+00  0.2447E+01
 -14.316  0.3279E+00  0.2450E+01
 -14.306  0.3267E+00  0.2454E+01
 -14.296  0.3255E+00  0.2457E+01
 -14.286  0.3242E+00  0.2460E+01
 -14.276  0.3228E+00  0.2463E+01
 -14.266  0.3215E+00  0.2467E+01
 -14.256  0.3201E+00  0.2470E+01
 -14.246  0.3188E+00  0.2473E+01
 -14.236  0.3174E+00  0.2476E+01
 -14.226  0.3161E+00  0.2479E+01
 -14.216  0.3147E+00  0.2482E+01
 -14.206  0.3134E+00  0.2486E+01
 -14.196  0.3120E+00  0.2489E+01
 -14.186  0.3107E+00  0.2492E+01
 -14.176  0.3095E+00  0.2495E+01
 -14.166  0.3092E+00  0.2498E+01
 -14.156  0.3090E+00  0.2501E+01
 -14.146  0.3087E+00  0.2504E+01
 -14.136  0.3084E+00  0.2507E+01
 -14.126  0.3081E+00  0.2510E+01
 -14.116  0.3077E+00  0.2513E+01
 -14.106  0.3074E+00  0.2517E+01
 -14.096  0.3071E+00  0.2520E+01
 -14.086  0.3068E+00  0.2523E+01
 -14.076  0.3065E+00  0.2526E+01
 -14.066  0.3062E+00  0.2529E+01
 -14.056  0.3058E+00  0.2532E+01
 -14.046  0.3055E+00  0.2535E+01
 -14.036  0.3052E+00  0.2538E+01
 -14.026  0.3049E+00  0.2541E+01
 -14.016  0.3046E+00  0.2544E+01
 -14.006  0.3043E+00  0.2547E+01
 -13.996  0.3040E+00  0.2550E+01
 -13.986  0.3036E+00  0.2553E+01
 -13.976  0.3033E+00  0.2556E+01
 -13.966  0.3030E+00  0.2559E+01
 -13.956  0.3027E+00  0.2562E+01
 -13.946  0.3023E+00  0.2565E+01
 -13.936  0.3020E+00  0.2568E+01
 -13.926  0.3016E+00  0.2571E+01
 -13.916  0.3013E+00  0.2574E+01
 -13.906  0.3010E+00  0.2577E+01
 -13.896  0.2883E+00  0.2580E+01
 -13.886  0.2882E+00  0.2583E+01
 -13.876  0.2881E+00  0.2586E+01
 -13.866  0.2880E+00  0.2589E+01
 -13.856  0.2879E+00  0.2592E+01
 -13.846  0.2879E+00  0.2595E+01
 -13.836  0.2878E+00  0.2598E+01
 -13.826  0.2877E+00  0.2601E+01
 -13.816  0.2876E+00  0.2603E+01
 -13.806  0.2876E+00  0.2606E+01
 -13.796  0.2875E+00  0.2609E+01
 -13.786  0.2874E+00  0.2612E+01
 -13.776  0.2873E+00  0.2615E+01
 -13.766  0.2872E+00  0.2618E+01
 -13.756  0.2872E+00  0.2621E+01
 -13.746  0.2871E+00  0.2624E+01
 -13.736  0.2870E+00  0.2626E+01
 -13.726  0.2869E+00  0.2629E+01
 -13.716  0.2868E+00  0.2632E+01
 -13.706  0.2867E+00  0.2635E+01
 -13.696  0.2866E+00  0.2638E+01
 -13.686  0.2860E+00  0.2641E+01
 -13.676  0.2853E+00  0.2644E+01
 -13.666  0.2846E+00  0.2646E+01
 -13.656  0.2838E+00  0.2649E+01
 -13.646  0.2831E+00  0.2652E+01
 -13.636  0.2823E+00  0.2655E+01
 -13.626  0.2816E+00  0.2658E+01
 -13.616  0.2809E+00  0.2661E+01
 -13.606  0.2801E+00  0.2663E+01
 -13.596  0.2794E+00  0.2666E+01
 -13.586  0.2786E+00  0.2669E+01
 -13.576  0.2779E+00  0.2672E+01
 -13.566  0.2772E+00  0.2675E+01
 -13.556  0.2764E+00  0.2677E+01
 -13.546  0.2757E+00  0.2680E+01
 -13.536  0.2749E+00  0.2683E+01
 -13.526  0.2742E+00  0.2686E+01
 -13.516  0.2735E+00  0.2688E+01
 -13.506  0.2727E+00  0.2691E+01
 -13.496  0.2742E+00  0.2694E+01
 -13.486  0.2777E+00  0.2697E+01
 -13.476  0.2813E+00  0.2699E+01
 -13.466  0.2848E+00  0.2702E+01
 -13.456  0.2884E+00  0.2705E+01
 -13.446  0.2925E+00  0.2708E+01
 -13.436  0.2967E+00  0.2711E+01
 -13.426  0.3010E+00  0.2714E+01
 -13.416  0.3052E+00  0.2717E+01
 -13.406  0.3095E+00  0.2720E+01
 -13.396  0.3137E+00  0.2723E+01
 -13.386  0.3180E+00  0.2726E+01
 -13.376  0.3222E+00  0.2729E+01
 -13.366  0.3265E+00  0.2733E+01
 -13.356  0.3307E+00  0.2736E+01
 -13.346  0.3350E+00  0.2739E+01
 -13.336  0.3392E+00  0.2743E+01
 -13.326  0.3435E+00  0.2746E+01
 -13.316  0.3477E+00  0.2750E+01
 -13.306  0.3520E+00  0.2753E+01
 -13.296  0.3310E+00  0.2757E+01
 -13.286  0.3309E+00  0.2760E+01
 -13.276  0.3308E+00  0.2763E+01
 -13.266  0.3306E+00  0.2766E+01
 -13.256  0.3305E+00  0.2770E+01
 -13.246  0.3303E+00  0.2773E+01
 -13.236  0.3301E+00  0.2776E+01
 -13.226  0.3300E+00  0.2780E+01
 -13.216  0.3298E+00  0.2783E+01
 -13.206  0.3297E+00  0.2786E+01
 -13.196  0.3295E+00  0.2790E+01
 -13.186  0.3293E+00  0.2793E+01
 -13.176  0.3292E+00  0.2796E+01
 -13.166  0.3290E+00  0.2799E+01
 -13.156  0.3289E+00  0.2803E+01
 -13.146  0.3287E+00  0.2806E+01
 -13.136  0.3285E+00  0.2809E+01
 -13.126  0.3284E+00  0.2813E+01
 -13.116  0.3195E+00  0.2816E+01
 -13.106  0.3195E+00  0.2819E+01
 -13.096  0.3195E+00  0.2822E+01
 -13.086  0.3201E+00  0.2825E+01
 -13.076  0.3211E+00  0.2829E+01
 -13.066  0.3221E+00  0.2832E+01
 -13.056  0.3231E+00  0.2835E+01
 -13.046  0.3241E+00  0.2838E+01
 -13.036  0.3251E+00  0.2841E+01
 -13.026  0.3261E+00  0.2845E+01
 -13.016  0.3271E+00  0.2848E+01
 -13.006  0.3280E+00  0.2851E+01
 -12.996  0.3290E+00  0.2855E+01
 -12.986  0.3300E+00  0.2858E+01
 -12.976  0.3310E+00  0.2861E+01
 -12.966  0.3320E+00  0.2864E+01
 -12.956  0.3330E+00  0.2868E+01
 -12.946  0.3339E+00  0.2871E+01
 -12.936  0.3349E+00  0.2874E+01
 -12.926  0.3359E+00  0.2878E+01
 -12.916  0.3369E+00  0.2881E+01
 -12.906  0.3379E+00  0.2885E+01
 -12.896  0.3389E+00  0.2888E+01
 -12.886  0.3398E+00  0.2891E+01
 -12.876  0.3408E+00  0.2895E+01
 -12.866  0.3413E+00  0.2898E+01
 -12.856  0.3406E+00  0.2902E+01
 -12.846  0.3396E+00  0.2905E+01
 -12.836  0.3386E+00  0.2908E+01
 -12.826  0.3376E+00  0.2912E+01
 -12.816  0.3369E+00  0.2915E+01
 -12.806  0.3363E+00  0.2919E+01
 -12.796  0.3356E+00  0.2922E+01
 -12.786  0.3350E+00  0.2925E+01
 -12.776  0.3344E+00  0.2929E+01
 -12.766  0.3338E+00  0.2932E+01
 -12.756  0.3331E+00  0.2935E+01
 -12.746  0.3325E+00  0.2939E+01
 -12.736  0.3319E+00  0.2942E+01
 -12.726  0.3312E+00  0.2945E+01
 -12.716  0.3306E+00  0.2949E+01
 -12.706  0.3300E+00  0.2952E+01
 -12.696  0.3293E+00  0.2955E+01
 -12.686  0.3287E+00  0.2958E+01
 -12.676  0.3281E+00  0.2962E+01
 -12.666  0.3356E+00  0.2965E+01
 -12.656  0.3354E+00  0.2968E+01
 -12.646  0.3351E+00  0.2972E+01
 -12.636  0.3352E+00  0.2975E+01
 -12.626  0.3355E+00  0.2978E+01
 -12.616  0.3358E+00  0.2982E+01
 -12.606  0.3361E+00  0.2985E+01
 -12.596  0.3363E+00  0.2988E+01
 -12.586  0.3365E+00  0.2992E+01
 -12.576  0.3367E+00  0.2995E+01
 -12.566  0.3368E+00  0.2999E+01
 -12.556  0.3370E+00  0.3002E+01
 -12.546  0.3372E+00  0.3005E+01
 -12.536  0.3374E+00  0.3009E+01
 -12.526  0.3375E+00  0.3012E+01
 -12.516  0.3377E+00  0.3015E+01
 -12.506  0.3379E+00  0.3019E+01
 -12.496  0.3380E+00  0.3022E+01
 -12.486  0.3382E+00  0.3026E+01
 -12.476  0.3384E+00  0.3029E+01
 -12.466  0.3385E+00  0.3032E+01
 -12.456  0.3387E+00  0.3036E+01
 -12.446  0.3389E+00  0.3039E+01
 -12.436  0.3390E+00  0.3043E+01
 -12.426  0.3392E+00  0.3046E+01
 -12.416  0.3393E+00  0.3049E+01
 -12.406  0.3395E+00  0.3053E+01
 -12.396  0.3397E+00  0.3056E+01
 -12.386  0.3398E+00  0.3059E+01
 -12.376  0.3400E+00  0.3063E+01
 -12.366  0.3402E+00  0.3066E+01
 -12.356  0.3406E+00  0.3070E+01
 -12.346  0.3413E+00  0.3073E+01
 -12.336  0.3420E+00  0.3077E+01
 -12.326  0.3426E+00  0.3080E+01
 -12.316  0.3432E+00  0.3083E+01
 -12.306  0.3438E+00  0.3087E+01
 -12.296  0.3438E+00  0.3090E+01
 -12.286  0.3442E+00  0.3094E+01
 -12.276  0.3446E+00  0.3097E+01
 -12.266  0.3450E+00  0.3101E+01
 -12.256  0.3391E+00  0.3104E+01
 -12.246  0.3396E+00  0.3107E+01
 -12.236  0.3401E+00  0.3111E+01
 -12.226  0.3406E+00  0.3114E+01
 -12.216  0.3411E+00  0.3118E+01
 -12.206  0.3416E+00  0.3121E+01
 -12.196  0.3421E+00  0.3124E+01
 -12.186  0.3426E+00  0.3128E+01
 -12.176  0.3431E+00  0.3131E+01
 -12.166  0.3436E+00  0.3135E+01
 -12.156  0.3440E+00  0.3138E+01
 -12.146  0.3445E+00  0.3142E+01
 -12.136  0.3450E+00  0.3145E+01
 -12.126  0.3455E+00  0.3149E+01
 -12.116  0.3460E+00  0.3152E+01
 -12.106  0.3462E+00  0.3155E+01
 -12.096  0.3464E+00  0.3159E+01
 -12.086  0.3465E+00  0.3162E+01
 -12.076  0.3466E+00  0.3166E+01
 -12.066  0.3468E+00  0.3169E+01
 -12.056  0.3469E+00  0.3173E+01
 -12.046  0.3470E+00  0.3176E+01
 -12.036  0.3471E+00  0.3180E+01
 -12.026  0.3472E+00  0.3183E+01
 -12.016  0.3473E+00  0.3187E+01
 -12.006  0.3475E+00  0.3190E+01
 -11.996  0.3476E+00  0.3194E+01
 -11.986  0.3477E+00  0.3197E+01
 -11.976  0.3478E+00  0.3201E+01
 -11.966  0.3479E+00  0.3204E+01
 -11.956  0.3480E+00  0.3207E+01
 -11.946  0.3481E+00  0.3211E+01
 -11.936  0.3482E+00  0.3214E+01
 -11.926  0.3479E+00  0.3218E+01
 -11.916  0.3476E+00  0.3221E+01
 -11.906  0.3473E+00  0.3225E+01
 -11.896  0.3470E+00  0.3228E+01
 -11.886  0.3467E+00  0.3232E+01
 -11.876  0.3524E+00  0.3235E+01
 -11.866  0.3523E+00  0.3239E+01
 -11.856  0.3522E+00  0.3242E+01
 -11.846  0.3520E+00  0.3246E+01
 -11.836  0.3519E+00  0.3249E+01
 -11.826  0.3518E+00  0.3253E+01
 -11.816  0.3517E+00  0.3256E+01
 -11.806  0.3516E+00  0.3260E+01
 -11.796  0.3515E+00  0.3263E+01
 -11.786  0.3514E+00  0.3267E+01
 -11.776  0.3513E+00  0.3271E+01
 -11.766  0.3511E+00  0.3274E+01
 -11.756  0.3510E+00  0.3278E+01
 -11.746  0.3509E+00  0.3281E+01
 -11.736  0.3511E+00  0.3285E+01
 -11.726  0.3515E+00  0.3288E+01
 -11.716  0.3521E+00  0.3292E+01
 -11.706  0.3527E+00  0.3295E+01
 -11.696  0.3532E+00  0.3299E+01
 -11.686  0.3536E+00  0.3302E+01
 -11.676  0.3539E+00  0.3306E+01
 -11.666  0.3543E+00  0.3309E+01
 -11.656  0.3547E+00  0.3313E+01
 -11.646  0.3551E+00  0.3316E+01
 -11.636  0.3555E+00  0.3320E+01
 -11.626  0.3559E+00  0.3323E+01
 -11.616  0.3561E+00  0.3327E+01
 -11.606  0.3562E+00  0.3331E+01
 -11.596  0.3564E+00  0.3334E+01
 -11.586  0.3566E+00  0.3338E+01
 -11.576  0.3567E+00  0.3341E+01
 -11.566  0.3569E+00  0.3345E+01
 -11.556  0.3571E+00  0.3348E+01
 -11.546  0.3572E+00  0.3352E+01
 -11.536  0.3574E+00  0.3356E+01
 -11.526  0.3576E+00  0.3359E+01
 -11.516  0.3578E+00  0.3363E+01
 -11.506  0.3582E+00  0.3366E+01
 -11.496  0.3588E+00  0.3370E+01
 -11.486  0.3592E+00  0.3373E+01
 -11.476  0.3597E+00  0.3377E+01
 -11.466  0.3601E+00  0.3381E+01
 -11.456  0.3605E+00  0.3384E+01
 -11.446  0.3610E+00  0.3388E+01
 -11.436  0.3614E+00  0.3391E+01
 -11.426  0.3618E+00  0.3395E+01
 -11.416  0.3623E+00  0.3399E+01
 -11.406  0.3627E+00  0.3402E+01
 -11.396  0.3631E+00  0.3406E+01
 -11.386  0.3635E+00  0.3410E+01
 -11.376  0.3640E+00  0.3413E+01
 -11.366  0.3644E+00  0.3417E+01
 -11.356  0.3648E+00  0.3421E+01
 -11.346  0.3652E+00  0.3424E+01
 -11.336  0.3657E+00  0.3428E+01
 -11.326  0.3661E+00  0.3431E+01
 -11.316  0.3665E+00  0.3435E+01
 -11.306  0.3624E+00  0.3439E+01
 -11.296  0.3629E+00  0.3442E+01
 -11.286  0.3632E+00  0.3446E+01
 -11.276  0.3634E+00  0.3450E+01
 -11.266  0.3636E+00  0.3453E+01
 -11.256  0.3638E+00  0.3457E+01
 -11.246  0.3640E+00  0.3461E+01
 -11.236  0.3642E+00  0.3464E+01
 -11.226  0.3644E+00  0.3468E+01
 -11.216  0.3646E+00  0.3472E+01
 -11.206  0.3648E+00  0.3475E+01
 -11.196  0.3650E+00  0.3479E+01
 -11.186  0.3652E+00  0.3482E+01
 -11.176  0.3654E+00  0.3486E+01
 -11.166  0.3656E+00  0.3490E+01
 -11.156  0.3658E+00  0.3493E+01
 -11.146  0.3660E+00  0.3497E+01
 -11.136  0.3662E+00  0.3501E+01
 -11.126  0.3677E+00  0.3504E+01
 -11.116  0.3682E+00  0.3508E+01
 -11.106  0.3688E+00  0.3512E+01
 -11.096  0.3694E+00  0.3515E+01
 -11.086  0.3699E+00  0.3519E+01
 -11.076  0.3702E+00  0.3523E+01
 -11.066  0.3706E+00  0.3527E+01
 -11.056  0.3710E+00  0.3530E+01
 -11.046  0.3713E+00  0.3534E+01
 -11.036  0.3717E+00  0.3538E+01
 -11.026  0.3721E+00  0.3541E+01
 -11.016  0.3724E+00  0.3545E+01
 -11.006  0.3728E+00  0.3549E+01
 -10.996  0.3775E+00  0.3553E+01
 -10.986  0.3779E+00  0.3556E+01
 -10.976  0.3783E+00  0.3560E+01
 -10.966  0.3787E+00  0.3564E+01
 -10.956  0.3791E+00  0.3568E+01
 -10.946  0.3795E+00  0.3572E+01
 -10.936  0.3798E+00  0.3575E+01
 -10.926  0.3798E+00  0.3579E+01
 -10.916  0.3799E+00  0.3583E+01
 -10.906  0.3799E+00  0.3587E+01
 -10.896  0.3800E+00  0.3591E+01
 -10.886  0.3800E+00  0.3594E+01
 -10.876  0.3801E+00  0.3598E+01
 -10.866  0.3801E+00  0.3602E+01
 -10.856  0.3801E+00  0.3606E+01
 -10.846  0.3801E+00  0.3610E+01
 -10.836  0.3801E+00  0.3613E+01
 -10.826  0.3800E+00  0.3617E+01
 -10.816  0.3800E+00  0.3621E+01
 -10.806  0.3800E+00  0.3625E+01
 -10.796  0.3799E+00  0.3629E+01
 -10.786  0.3799E+00  0.3632E+01
 -10.776  0.3799E+00  0.3636E+01
 -10.766  0.3799E+00  0.3640E+01
 -10.756  0.3803E+00  0.3644E+01
 -10.746  0.3806E+00  0.3648E+01
 -10.736  0.3810E+00  0.3651E+01
 -10.726  0.3814E+00  0.3655E+01
 -10.716  0.3817E+00  0.3659E+01
 -10.706  0.3821E+00  0.3663E+01
 -10.696  0.3825E+00  0.3667E+01
 -10.686  0.3828E+00  0.3670E+01
 -10.676  0.3832E+00  0.3674E+01
 -10.666  0.3836E+00  0.3678E+01
 -10.656  0.3839E+00  0.3682E+01
 -10.646  0.3841E+00  0.3686E+01
 -10.636  0.3844E+00  0.3690E+01
 -10.626  0.3846E+00  0.3693E+01
 -10.616  0.3848E+00  0.3697E+01
 -10.606  0.3851E+00  0.3701E+01
 -10.596  0.3853E+00  0.3705E+01
 -10.586  0.3856E+00  0.3709E+01
 -10.576  0.3862E+00  0.3713E+01
 -10.566  0.3879E+00  0.3717E+01
 -10.556  0.3897E+00  0.3721E+01
 -10.546  0.3908E+00  0.3724E+01
 -10.536  0.3917E+00  0.3728E+01
 -10.526  0.3926E+00  0.3732E+01
 -10.516  0.3935E+00  0.3736E+01
 -10.506  0.3944E+00  0.3740E+01
 -10.496  0.3953E+00  0.3744E+01
 -10.486  0.3962E+00  0.3748E+01
 -10.476  0.3969E+00  0.3752E+01
 -10.466  0.4289E+00  0.3756E+01
 -10.456  0.5816E+00  0.3761E+01
 -10.446  0.7344E+00  0.3768E+01
 -10.436  0.5968E+00  0.3774E+01
 -10.426  0.6103E+00  0.3780E+01
 -10.416  0.6237E+00  0.3786E+01
 -10.406  0.6371E+00  0.3792E+01
 -10.396  0.6503E+00  0.3799E+01
 -10.386  0.6405E+00  0.3805E+01
 -10.376  0.6251E+00  0.3812E+01
 -10.366  0.6165E+00  0.3818E+01
 -10.356  0.6213E+00  0.3824E+01
 -10.346  0.6261E+00  0.3830E+01
 -10.336  0.6309E+00  0.3837E+01
 -10.326  0.6357E+00  0.3843E+01
 -10.316  0.6405E+00  0.3849E+01
 -10.306  0.6453E+00  0.3856E+01
 -10.296  0.6466E+00  0.3862E+01
 -10.286  0.6277E+00  0.3869E+01
 -10.276  0.6272E+00  0.3875E+01
 -10.266  0.6267E+00  0.3881E+01
 -10.256  0.6262E+00  0.3887E+01
 -10.246  0.6257E+00  0.3894E+01
 -10.236  0.6285E+00  0.3900E+01
 -10.226  0.6312E+00  0.3906E+01
 -10.216  0.6339E+00  0.3912E+01
 -10.206  0.6365E+00  0.3919E+01
 -10.196  0.6391E+00  0.3925E+01
 -10.186  0.6418E+00  0.3932E+01
 -10.176  0.6444E+00  0.3938E+01
 -10.166  0.6416E+00  0.3944E+01
 -10.156  0.6361E+00  0.3951E+01
 -10.146  0.6318E+00  0.3957E+01
 -10.136  0.6326E+00  0.3964E+01
 -10.126  0.6334E+00  0.3970E+01
 -10.116  0.6341E+00  0.3976E+01
 -10.106  0.6349E+00  0.3983E+01
 -10.096  0.6357E+00  0.3989E+01
 -10.086  0.6364E+00  0.3995E+01
 -10.076  0.6372E+00  0.4002E+01
 -10.066  0.6388E+00  0.4008E+01
 -10.056  0.6439E+00  0.4014E+01
 -10.046  0.6457E+00  0.4021E+01
 -10.036  0.6505E+00  0.4027E+01
 -10.026  0.6535E+00  0.4034E+01
 -10.016  0.6564E+00  0.4040E+01
 -10.006  0.6593E+00  0.4047E+01
  -9.996  0.6543E+00  0.4054E+01
  -9.986  0.6542E+00  0.4060E+01
  -9.976  0.6541E+00  0.4067E+01
  -9.966  0.6539E+00  0.4073E+01
  -9.956  0.6538E+00  0.4080E+01
  -9.946  0.6547E+00  0.4086E+01
  -9.936  0.6562E+00  0.4093E+01
  -9.926  0.6577E+00  0.4099E+01
  -9.916  0.6592E+00  0.4106E+01
  -9.906  0.6605E+00  0.4113E+01
  -9.896  0.6618E+00  0.4119E+01
  -9.886  0.6631E+00  0.4126E+01
  -9.876  0.6644E+00  0.4132E+01
  -9.866  0.6654E+00  0.4139E+01
  -9.856  0.6664E+00  0.4146E+01
  -9.846  0.6678E+00  0.4152E+01
  -9.836  0.6691E+00  0.4159E+01
  -9.826  0.6705E+00  0.4166E+01
  -9.816  0.6719E+00  0.4173E+01
  -9.806  0.6732E+00  0.4179E+01
  -9.796  0.6712E+00  0.4186E+01
  -9.786  0.6689E+00  0.4193E+01
  -9.776  0.6678E+00  0.4199E+01
  -9.766  0.6679E+00  0.4206E+01
  -9.756  0.6680E+00  0.4213E+01
  -9.746  0.6681E+00  0.4219E+01
  -9.736  0.6681E+00  0.4226E+01
  -9.726  0.6683E+00  0.4233E+01
  -9.716  0.6687E+00  0.4239E+01
  -9.706  0.6692E+00  0.4246E+01
  -9.696  0.6703E+00  0.4253E+01
  -9.686  0.6713E+00  0.4260E+01
  -9.676  0.6724E+00  0.4266E+01
  -9.666  0.6735E+00  0.4273E+01
  -9.656  0.6745E+00  0.4280E+01
  -9.646  0.6756E+00  0.4286E+01
  -9.636  0.6766E+00  0.4293E+01
  -9.626  0.6777E+00  0.4300E+01
  -9.616  0.6787E+00  0.4307E+01
  -9.606  0.6799E+00  0.4314E+01
  -9.596  0.6812E+00  0.4320E+01
  -9.586  0.6825E+00  0.4327E+01
  -9.576  0.6840E+00  0.4334E+01
  -9.566  0.6878E+00  0.4341E+01
  -9.556  0.6892E+00  0.4348E+01
  -9.546  0.6921E+00  0.4355E+01
  -9.536  0.6936E+00  0.4362E+01
  -9.526  0.6951E+00  0.4369E+01
  -9.516  0.6966E+00  0.4375E+01
  -9.506  0.6987E+00  0.4382E+01
  -9.496  0.7010E+00  0.4389E+01
  -9.486  0.7031E+00  0.4396E+01
  -9.476  0.7048E+00  0.4404E+01
  -9.466  0.7064E+00  0.4411E+01
  -9.456  0.7079E+00  0.4418E+01
  -9.446  0.7093E+00  0.4425E+01
  -9.436  0.7110E+00  0.4432E+01
  -9.426  0.7130E+00  0.4439E+01
  -9.416  0.7149E+00  0.4446E+01
  -9.406  0.7172E+00  0.4453E+01
  -9.396  0.7193E+00  0.4460E+01
  -9.386  0.7215E+00  0.4468E+01
  -9.376  0.7235E+00  0.4475E+01
  -9.366  0.7254E+00  0.4482E+01
  -9.356  0.7273E+00  0.4489E+01
  -9.346  0.7293E+00  0.4497E+01
  -9.336  0.7312E+00  0.4504E+01
  -9.326  0.7331E+00  0.4511E+01
  -9.316  0.7351E+00  0.4519E+01
  -9.306  0.7370E+00  0.4526E+01
  -9.296  0.7389E+00  0.4533E+01
  -9.286  0.7389E+00  0.4541E+01
  -9.276  0.7388E+00  0.4548E+01
  -9.266  0.7395E+00  0.4556E+01
  -9.256  0.7409E+00  0.4563E+01
  -9.246  0.7423E+00  0.4570E+01
  -9.236  0.7436E+00  0.4578E+01
  -9.226  0.7424E+00  0.4585E+01
  -9.216  0.7438E+00  0.4593E+01
  -9.206  0.7452E+00  0.4600E+01
  -9.196  0.7467E+00  0.4608E+01
  -9.186  0.7483E+00  0.4615E+01
  -9.176  0.7500E+00  0.4623E+01
  -9.166  0.7601E+00  0.4630E+01
  -9.156  0.7657E+00  0.4638E+01
  -9.146  0.7712E+00  0.4645E+01
  -9.136  0.7766E+00  0.4653E+01
  -9.126  0.7821E+00  0.4661E+01
  -9.116  0.7857E+00  0.4669E+01
  -9.106  0.7892E+00  0.4677E+01
  -9.096  0.7926E+00  0.4685E+01
  -9.086  0.7961E+00  0.4692E+01
  -9.076  0.8215E+00  0.4700E+01
  -9.066  0.8880E+00  0.4709E+01
  -9.056  0.9570E+00  0.4718E+01
  -9.046  0.1001E+01  0.4728E+01
  -9.036  0.9909E+00  0.4738E+01
  -9.026  0.9805E+00  0.4748E+01
  -9.016  0.9702E+00  0.4758E+01
  -9.006  0.9599E+00  0.4767E+01
  -8.996  0.9496E+00  0.4777E+01
  -8.986  0.9392E+00  0.4786E+01
  -8.976  0.9323E+00  0.4796E+01
  -8.966  0.9300E+00  0.4805E+01
  -8.956  0.9276E+00  0.4814E+01
  -8.946  0.9253E+00  0.4824E+01
  -8.936  0.9229E+00  0.4833E+01
  -8.926  0.8847E+00  0.4842E+01
  -8.916  0.8422E+00  0.4850E+01
  -8.906  0.8073E+00  0.4859E+01
  -8.896  0.7782E+00  0.4867E+01
  -8.886  0.7491E+00  0.4874E+01
  -8.876  0.7200E+00  0.4882E+01
  -8.866  0.6935E+00  0.4889E+01
  -8.856  0.6834E+00  0.4896E+01
  -8.846  0.6724E+00  0.4902E+01
  -8.836  0.6575E+00  0.4909E+01
  -8.826  0.6567E+00  0.4916E+01
  -8.816  0.6558E+00  0.4922E+01
  -8.806  0.6550E+00  0.4929E+01
  -8.796  0.6541E+00  0.4935E+01
  -8.786  0.6533E+00  0.4942E+01
  -8.776  0.6500E+00  0.4948E+01
  -8.766  0.6466E+00  0.4955E+01
  -8.756  0.6434E+00  0.4961E+01
  -8.746  0.6399E+00  0.4968E+01
  -8.736  0.6364E+00  0.4974E+01
  -8.726  0.6330E+00  0.4980E+01
  -8.716  0.6295E+00  0.4987E+01
  -8.706  0.6260E+00  0.4993E+01
  -8.696  0.6329E+00  0.4999E+01
  -8.686  0.7160E+00  0.5006E+01
  -8.676  0.7983E+00  0.5013E+01
  -8.666  0.9790E+00  0.5022E+01
  -8.656  0.1066E+01  0.5033E+01
  -8.646  0.1114E+01  0.5043E+01
  -8.636  0.1202E+01  0.5055E+01
  -8.626  0.1291E+01  0.5067E+01
  -8.616  0.1333E+01  0.5081E+01
  -8.606  0.1321E+01  0.5094E+01
  -8.596  0.1238E+01  0.5107E+01
  -8.586  0.1190E+01  0.5119E+01
  -8.576  0.1200E+01  0.5131E+01
  -8.566  0.1210E+01  0.5143E+01
  -8.556  0.1220E+01  0.5155E+01
  -8.546  0.1200E+01  0.5167E+01
  -8.536  0.1153E+01  0.5179E+01
  -8.526  0.1110E+01  0.5190E+01
  -8.516  0.1092E+01  0.5201E+01
  -8.506  0.1075E+01  0.5212E+01
  -8.496  0.1061E+01  0.5223E+01
  -8.486  0.1048E+01  0.5233E+01
  -8.476  0.1035E+01  0.5244E+01
  -8.466  0.1021E+01  0.5254E+01
  -8.456  0.1008E+01  0.5264E+01
  -8.446  0.9945E+00  0.5274E+01
  -8.436  0.9812E+00  0.5284E+01
  -8.426  0.9719E+00  0.5294E+01
  -8.416  0.9449E+00  0.5303E+01
  -8.406  0.9390E+00  0.5313E+01
  -8.396  0.9332E+00  0.5322E+01
  -8.386  0.9274E+00  0.5331E+01
  -8.376  0.9216E+00  0.5341E+01
  -8.366  0.9158E+00  0.5350E+01
  -8.356  0.9098E+00  0.5359E+01
  -8.346  0.9034E+00  0.5368E+01
  -8.336  0.8998E+00  0.5377E+01
  -8.326  0.8967E+00  0.5386E+01
  -8.316  0.8936E+00  0.5395E+01
  -8.306  0.8904E+00  0.5404E+01
  -8.296  0.8872E+00  0.5413E+01
  -8.286  0.8840E+00  0.5422E+01
  -8.276  0.8774E+00  0.5430E+01
  -8.266  0.8118E+00  0.5439E+01
  -8.256  0.8018E+00  0.5447E+01
  -8.246  0.7939E+00  0.5455E+01
  -8.236  0.7860E+00  0.5463E+01
  -8.226  0.7781E+00  0.5471E+01
  -8.216  0.7631E+00  0.5478E+01
  -8.206  0.7446E+00  0.5486E+01
  -8.196  0.7260E+00  0.5493E+01
  -8.186  0.7074E+00  0.5501E+01
  -8.176  0.6889E+00  0.5507E+01
  -8.166  0.6703E+00  0.5514E+01
  -8.156  0.6518E+00  0.5521E+01
  -8.146  0.6332E+00  0.5527E+01
  -8.136  0.6144E+00  0.5534E+01
  -8.126  0.5999E+00  0.5540E+01
  -8.116  0.5976E+00  0.5546E+01
  -8.106  0.5954E+00  0.5552E+01
  -8.096  0.5923E+00  0.5558E+01
  -8.086  0.6563E+00  0.5564E+01
  -8.076  0.6612E+00  0.5570E+01
  -8.066  0.6661E+00  0.5577E+01
  -8.056  0.6731E+00  0.5584E+01
  -8.046  0.6809E+00  0.5591E+01
  -8.036  0.6811E+00  0.5597E+01
  -8.026  0.6786E+00  0.5604E+01
  -8.016  0.6762E+00  0.5611E+01
  -8.006  0.6738E+00  0.5618E+01
  -7.996  0.6714E+00  0.5624E+01
  -7.986  0.6700E+00  0.5631E+01
  -7.976  0.6697E+00  0.5638E+01
  -7.966  0.6693E+00  0.5645E+01
  -7.956  0.6689E+00  0.5651E+01
  -7.946  0.6685E+00  0.5658E+01
  -7.936  0.6682E+00  0.5665E+01
  -7.926  0.6695E+00  0.5671E+01
  -7.916  0.6769E+00  0.5678E+01
  -7.906  0.6843E+00  0.5685E+01
  -7.896  0.6917E+00  0.5692E+01
  -7.886  0.7022E+00  0.5699E+01
  -7.876  0.7297E+00  0.5706E+01
  -7.866  0.7505E+00  0.5713E+01
  -7.856  0.7624E+00  0.5721E+01
  -7.846  0.7736E+00  0.5728E+01
  -7.836  0.7816E+00  0.5736E+01
  -7.826  0.7621E+00  0.5744E+01
  -7.816  0.6767E+00  0.5751E+01
  -7.806  0.6019E+00  0.5758E+01
  -7.796  0.5867E+00  0.5764E+01
  -7.786  0.5716E+00  0.5769E+01
  -7.776  0.5650E+00  0.5775E+01
  -7.766  0.5750E+00  0.5781E+01
  -7.756  0.5850E+00  0.5786E+01
  -7.746  0.5950E+00  0.5792E+01
  -7.736  0.6015E+00  0.5798E+01
  -7.726  0.5932E+00  0.5804E+01
  -7.716  0.5850E+00  0.5810E+01
  -7.706  0.5767E+00  0.5816E+01
  -7.696  0.5684E+00  0.5822E+01
  -7.686  0.5602E+00  0.5827E+01
  -7.676  0.5519E+00  0.5833E+01
  -7.666  0.5436E+00  0.5838E+01
  -7.656  0.5347E+00  0.5844E+01
  -7.646  0.5257E+00  0.5849E+01
  -7.636  0.5167E+00  0.5854E+01
  -7.626  0.5183E+00  0.5860E+01
  -7.616  0.5216E+00  0.5865E+01
  -7.606  0.5250E+00  0.5870E+01
  -7.596  0.5621E+00  0.5875E+01
  -7.586  0.6144E+00  0.5881E+01
  -7.576  0.6932E+00  0.5888E+01
  -7.566  0.8335E+00  0.5895E+01
  -7.556  0.8733E+00  0.5904E+01
  -7.546  0.8372E+00  0.5913E+01
  -7.536  0.8011E+00  0.5921E+01
  -7.526  0.7650E+00  0.5929E+01
  -7.516  0.7289E+00  0.5936E+01
  -7.506  0.7005E+00  0.5943E+01
  -7.496  0.6958E+00  0.5950E+01
  -7.486  0.6910E+00  0.5957E+01
  -7.476  0.6863E+00  0.5964E+01
  -7.466  0.6816E+00  0.5971E+01
  -7.456  0.6769E+00  0.5978E+01
  -7.446  0.6722E+00  0.5984E+01
  -7.436  0.6674E+00  0.5991E+01
  -7.426  0.6618E+00  0.5998E+01
  -7.416  0.6567E+00  0.6004E+01
  -7.406  0.6517E+00  0.6011E+01
  -7.396  0.6465E+00  0.6017E+01
  -7.386  0.6413E+00  0.6024E+01
  -7.376  0.6363E+00  0.6030E+01
  -7.366  0.6313E+00  0.6037E+01
  -7.356  0.6263E+00  0.6043E+01
  -7.346  0.6218E+00  0.6049E+01
  -7.336  0.6174E+00  0.6055E+01
  -7.326  0.6131E+00  0.6061E+01
  -7.316  0.6087E+00  0.6068E+01
  -7.306  0.6047E+00  0.6074E+01
  -7.296  0.6034E+00  0.6080E+01
  -7.286  0.6020E+00  0.6086E+01
  -7.276  0.6003E+00  0.6092E+01
  -7.266  0.5986E+00  0.6098E+01
  -7.256  0.5977E+00  0.6104E+01
  -7.246  0.5968E+00  0.6110E+01
  -7.236  0.5959E+00  0.6116E+01
  -7.226  0.5950E+00  0.6122E+01
  -7.216  0.5940E+00  0.6127E+01
  -7.206  0.5931E+00  0.6133E+01
  -7.196  0.5921E+00  0.6139E+01
  -7.186  0.5912E+00  0.6145E+01
  -7.176  0.5902E+00  0.6151E+01
  -7.166  0.5893E+00  0.6157E+01
  -7.156  0.5884E+00  0.6163E+01
  -7.146  0.5875E+00  0.6169E+01
  -7.136  0.5892E+00  0.6175E+01
  -7.126  0.5886E+00  0.6181E+01
  -7.116  0.5880E+00  0.6186E+01
  -7.106  0.5874E+00  0.6192E+01
  -7.096  0.5868E+00  0.6198E+01
  -7.086  0.5861E+00  0.6204E+01
  -7.076  0.5855E+00  0.6210E+01
  -7.066  0.5849E+00  0.6216E+01
  -7.056  0.5843E+00  0.6222E+01
  -7.046  0.5837E+00  0.6227E+01
  -7.036  0.5818E+00  0.6233E+01
  -7.026  0.5810E+00  0.6239E+01
  -7.016  0.5802E+00  0.6245E+01
  -7.006  0.5794E+00  0.6251E+01
  -6.996  0.5786E+00  0.6257E+01
  -6.986  0.5778E+00  0.6262E+01
  -6.976  0.5771E+00  0.6268E+01
  -6.966  0.5759E+00  0.6274E+01
  -6.956  0.5745E+00  0.6280E+01
  -6.946  0.5729E+00  0.6285E+01
  -6.936  0.5720E+00  0.6291E+01
  -6.926  0.5711E+00  0.6297E+01
  -6.916  0.5702E+00  0.6302E+01
  -6.906  0.5693E+00  0.6308E+01
  -6.896  0.5684E+00  0.6314E+01
  -6.886  0.5676E+00  0.6320E+01
  -6.876  0.5667E+00  0.6325E+01
  -6.866  0.5659E+00  0.6331E+01
  -6.856  0.5651E+00  0.6337E+01
  -6.846  0.5643E+00  0.6342E+01
  -6.836  0.5635E+00  0.6348E+01
  -6.826  0.5626E+00  0.6353E+01
  -6.816  0.5618E+00  0.6359E+01
  -6.806  0.5610E+00  0.6365E+01
  -6.796  0.5601E+00  0.6370E+01
  -6.786  0.5593E+00  0.6376E+01
  -6.776  0.5585E+00  0.6381E+01
  -6.766  0.5577E+00  0.6387E+01
  -6.756  0.5570E+00  0.6393E+01
  -6.746  0.5562E+00  0.6398E+01
  -6.736  0.5554E+00  0.6404E+01
  -6.726  0.5547E+00  0.6409E+01
  -6.716  0.5539E+00  0.6415E+01
  -6.706  0.5536E+00  0.6420E+01
  -6.696  0.5539E+00  0.6426E+01
  -6.686  0.5542E+00  0.6431E+01
  -6.676  0.5545E+00  0.6437E+01
  -6.666  0.5547E+00  0.6443E+01
  -6.656  0.5543E+00  0.6448E+01
  -6.646  0.5539E+00  0.6454E+01
  -6.636  0.5535E+00  0.6459E+01
  -6.626  0.5531E+00  0.6465E+01
  -6.616  0.5528E+00  0.6470E+01
  -6.606  0.5527E+00  0.6476E+01
  -6.596  0.5524E+00  0.6481E+01
  -6.586  0.5516E+00  0.6487E+01
  -6.576  0.5508E+00  0.6492E+01
  -6.566  0.5500E+00  0.6498E+01
  -6.556  0.5491E+00  0.6503E+01
  -6.546  0.5483E+00  0.6509E+01
  -6.536  0.5475E+00  0.6514E+01
  -6.526  0.5467E+00  0.6520E+01
  -6.516  0.5459E+00  0.6525E+01
  -6.506  0.5452E+00  0.6531E+01
  -6.496  0.5444E+00  0.6536E+01
  -6.486  0.5438E+00  0.6542E+01
  -6.476  0.5425E+00  0.6547E+01
  -6.466  0.5416E+00  0.6552E+01
  -6.456  0.5407E+00  0.6558E+01
  -6.446  0.5398E+00  0.6563E+01
  -6.436  0.5390E+00  0.6569E+01
  -6.426  0.5382E+00  0.6574E+01
  -6.416  0.5375E+00  0.6579E+01
  -6.406  0.5367E+00  0.6585E+01
  -6.396  0.5360E+00  0.6590E+01
  -6.386  0.5352E+00  0.6595E+01
  -6.376  0.5345E+00  0.6601E+01
  -6.366  0.5338E+00  0.6606E+01
  -6.356  0.5331E+00  0.6612E+01
  -6.346  0.5325E+00  0.6617E+01
  -6.336  0.5318E+00  0.6622E+01
  -6.326  0.5312E+00  0.6627E+01
  -6.316  0.5306E+00  0.6633E+01
  -6.306  0.5299E+00  0.6638E+01
  -6.296  0.5293E+00  0.6643E+01
  -6.286  0.5287E+00  0.6649E+01
  -6.276  0.5313E+00  0.6654E+01
  -6.266  0.5319E+00  0.6659E+01
  -6.256  0.5331E+00  0.6665E+01
  -6.246  0.5349E+00  0.6670E+01
  -6.236  0.5343E+00  0.6675E+01
  -6.226  0.5336E+00  0.6681E+01
  -6.216  0.5330E+00  0.6686E+01
  -6.206  0.5324E+00  0.6691E+01
  -6.196  0.5317E+00  0.6697E+01
  -6.186  0.5311E+00  0.6702E+01
  -6.176  0.5305E+00  0.6707E+01
  -6.166  0.5298E+00  0.6713E+01
  -6.156  0.5292E+00  0.6718E+01
  -6.146  0.5286E+00  0.6723E+01
  -6.136  0.5279E+00  0.6728E+01
  -6.126  0.5273E+00  0.6734E+01
  -6.116  0.5267E+00  0.6739E+01
  -6.106  0.5261E+00  0.6744E+01
  -6.096  0.5254E+00  0.6749E+01
  -6.086  0.5248E+00  0.6755E+01
  -6.076  0.5242E+00  0.6760E+01
  -6.066  0.5236E+00  0.6765E+01
  -6.056  0.5230E+00  0.6770E+01
  -6.046  0.5224E+00  0.6776E+01
  -6.036  0.5217E+00  0.6781E+01
  -6.026  0.5212E+00  0.6786E+01
  -6.016  0.5207E+00  0.6791E+01
  -6.006  0.5201E+00  0.6797E+01
  -5.996  0.5196E+00  0.6802E+01
  -5.986  0.5191E+00  0.6807E+01
  -5.976  0.5186E+00  0.6812E+01
  -5.966  0.5178E+00  0.6817E+01
  -5.956  0.5169E+00  0.6822E+01
  -5.946  0.5163E+00  0.6828E+01
  -5.936  0.5157E+00  0.6833E+01
  -5.926  0.5152E+00  0.6838E+01
  -5.916  0.5146E+00  0.6843E+01
  -5.906  0.5153E+00  0.6848E+01
  -5.896  0.5192E+00  0.6853E+01
  -5.886  0.5227E+00  0.6859E+01
  -5.876  0.5221E+00  0.6864E+01
  -5.866  0.5215E+00  0.6869E+01
  -5.856  0.5209E+00  0.6874E+01
  -5.846  0.5202E+00  0.6879E+01
  -5.836  0.5196E+00  0.6885E+01
  -5.826  0.5190E+00  0.6890E+01
  -5.816  0.5183E+00  0.6895E+01
  -5.806  0.5177E+00  0.6900E+01
  -5.796  0.5171E+00  0.6905E+01
  -5.786  0.5165E+00  0.6911E+01
  -5.776  0.5159E+00  0.6916E+01
  -5.766  0.5153E+00  0.6921E+01
  -5.756  0.5148E+00  0.6926E+01
  -5.746  0.5142E+00  0.6931E+01
  -5.736  0.5136E+00  0.6936E+01
  -5.726  0.5130E+00  0.6941E+01
  -5.716  0.5124E+00  0.6947E+01
  -5.706  0.5118E+00  0.6952E+01
  -5.696  0.5112E+00  0.6957E+01
  -5.686  0.5108E+00  0.6962E+01
  -5.676  0.5106E+00  0.6967E+01
  -5.666  0.5105E+00  0.6972E+01
  -5.656  0.5104E+00  0.6977E+01
  -5.646  0.5103E+00  0.6982E+01
  -5.636  0.5103E+00  0.6987E+01
  -5.626  0.5102E+00  0.6993E+01
  -5.616  0.5101E+00  0.6998E+01
  -5.606  0.5100E+00  0.7003E+01
  -5.596  0.5100E+00  0.7008E+01
  -5.586  0.5097E+00  0.7013E+01
  -5.576  0.5111E+00  0.7018E+01
  -5.566  0.5129E+00  0.7023E+01
  -5.556  0.5190E+00  0.7028E+01
  -5.546  0.5183E+00  0.7034E+01
  -5.536  0.5176E+00  0.7039E+01
  -5.526  0.5170E+00  0.7044E+01
  -5.516  0.5163E+00  0.7049E+01
  -5.506  0.5157E+00  0.7054E+01
  -5.496  0.5150E+00  0.7059E+01
  -5.486  0.5143E+00  0.7064E+01
  -5.476  0.5137E+00  0.7070E+01
  -5.466  0.5130E+00  0.7075E+01
  -5.456  0.5124E+00  0.7080E+01
  -5.446  0.5117E+00  0.7085E+01
  -5.436  0.5108E+00  0.7090E+01
  -5.426  0.5100E+00  0.7095E+01
  -5.416  0.5093E+00  0.7100E+01
  -5.406  0.5086E+00  0.7105E+01
  -5.396  0.5082E+00  0.7110E+01
  -5.386  0.5077E+00  0.7116E+01
  -5.376  0.5075E+00  0.7121E+01
  -5.366  0.5075E+00  0.7126E+01
  -5.356  0.5076E+00  0.7131E+01
  -5.346  0.5077E+00  0.7136E+01
  -5.336  0.5079E+00  0.7141E+01
  -5.326  0.5081E+00  0.7146E+01
  -5.316  0.5083E+00  0.7151E+01
  -5.306  0.5084E+00  0.7156E+01
  -5.296  0.5086E+00  0.7161E+01
  -5.286  0.5088E+00  0.7166E+01
  -5.276  0.5125E+00  0.7171E+01
  -5.266  0.5175E+00  0.7177E+01
  -5.256  0.5193E+00  0.7182E+01
  -5.246  0.5225E+00  0.7187E+01
  -5.236  0.5216E+00  0.7192E+01
  -5.226  0.5208E+00  0.7197E+01
  -5.216  0.5199E+00  0.7203E+01
  -5.206  0.5191E+00  0.7208E+01
  -5.196  0.5182E+00  0.7213E+01
  -5.186  0.5174E+00  0.7218E+01
  -5.176  0.5165E+00  0.7223E+01
  -5.166  0.5157E+00  0.7229E+01
  -5.156  0.5148E+00  0.7234E+01
  -5.146  0.5140E+00  0.7239E+01
  -5.136  0.5134E+00  0.7244E+01
  -5.126  0.5128E+00  0.7249E+01
  -5.116  0.5122E+00  0.7254E+01
  -5.106  0.5118E+00  0.7259E+01
  -5.096  0.5126E+00  0.7264E+01
  -5.086  0.5134E+00  0.7270E+01
  -5.076  0.5141E+00  0.7275E+01
  -5.066  0.5149E+00  0.7280E+01
  -5.056  0.5156E+00  0.7285E+01
  -5.046  0.5164E+00  0.7290E+01
  -5.036  0.5172E+00  0.7295E+01
  -5.026  0.5274E+00  0.7301E+01
  -5.016  0.5277E+00  0.7306E+01
  -5.006  0.5281E+00  0.7311E+01
  -4.996  0.5286E+00  0.7316E+01
  -4.986  0.5291E+00  0.7322E+01
  -4.976  0.5297E+00  0.7327E+01
  -4.966  0.5302E+00  0.7332E+01
  -4.956  0.5307E+00  0.7338E+01
  -4.946  0.5311E+00  0.7343E+01
  -4.936  0.5293E+00  0.7348E+01
  -4.926  0.5277E+00  0.7354E+01
  -4.916  0.5261E+00  0.7359E+01
  -4.906  0.5246E+00  0.7364E+01
  -4.896  0.5229E+00  0.7369E+01
  -4.886  0.5265E+00  0.7375E+01
  -4.876  0.5317E+00  0.7380E+01
  -4.866  0.5368E+00  0.7385E+01
  -4.856  0.5421E+00  0.7391E+01
  -4.846  0.5430E+00  0.7396E+01
  -4.836  0.5397E+00  0.7401E+01
  -4.826  0.5365E+00  0.7407E+01
  -4.816  0.5332E+00  0.7412E+01
  -4.806  0.5300E+00  0.7417E+01
  -4.796  0.5268E+00  0.7423E+01
  -4.786  0.5735E+00  0.7428E+01
  -4.776  0.5574E+00  0.7434E+01
  -4.766  0.5413E+00  0.7439E+01
  -4.756  0.6198E+00  0.7445E+01
  -4.746  0.5662E+00  0.7451E+01
  -4.736  0.5125E+00  0.7456E+01
  -4.726  0.4590E+00  0.7461E+01
  -4.716  0.4056E+00  0.7465E+01
  -4.706  0.3730E+00  0.7469E+01
  -4.696  0.3766E+00  0.7473E+01
  -4.686  0.3802E+00  0.7477E+01
  -4.676  0.3838E+00  0.7480E+01
  -4.666  0.3874E+00  0.7484E+01
  -4.656  0.3909E+00  0.7488E+01
  -4.646  0.3946E+00  0.7492E+01
  -4.636  0.3988E+00  0.7496E+01
  -4.626  0.4030E+00  0.7500E+01
  -4.616  0.4072E+00  0.7504E+01
  -4.606  0.4114E+00  0.7508E+01
  -4.596  0.4156E+00  0.7512E+01
  -4.586  0.4198E+00  0.7517E+01
  -4.576  0.4240E+00  0.7521E+01
  -4.566  0.4295E+00  0.7525E+01
  -4.556  0.4394E+00  0.7529E+01
  -4.546  0.4494E+00  0.7534E+01
  -4.536  0.4594E+00  0.7538E+01
  -4.526  0.4695E+00  0.7543E+01
  -4.516  0.4795E+00  0.7548E+01
  -4.506  0.4895E+00  0.7553E+01
  -4.496  0.4995E+00  0.7558E+01
  -4.486  0.5209E+00  0.7563E+01
  -4.476  0.5434E+00  0.7568E+01
  -4.466  0.5658E+00  0.7574E+01
  -4.456  0.5883E+00  0.7579E+01
  -4.446  0.1205E+01  0.7586E+01
  -4.436  0.7926E+00  0.7596E+01
  -4.426  0.5326E+00  0.7602E+01
  -4.416  0.5121E+00  0.7607E+01
  -4.406  0.4916E+00  0.7612E+01
  -4.396  0.4711E+00  0.7617E+01
  -4.386  0.4506E+00  0.7622E+01
  -4.376  0.4301E+00  0.7626E+01
  -4.366  0.4096E+00  0.7630E+01
  -4.356  0.3891E+00  0.7634E+01
  -4.346  0.3942E+00  0.7638E+01
  -4.336  0.4041E+00  0.7642E+01
  -4.326  0.4143E+00  0.7646E+01
  -4.316  0.4245E+00  0.7651E+01
  -4.306  0.4354E+00  0.7655E+01
  -4.296  0.3409E+00  0.7659E+01
  -4.286  0.3593E+00  0.7663E+01
  -4.276  0.3784E+00  0.7666E+01
  -4.266  0.3952E+00  0.7670E+01
  -4.256  0.3877E+00  0.7674E+01
  -4.246  0.3802E+00  0.7678E+01
  -4.236  0.3727E+00  0.7682E+01
  -4.226  0.3652E+00  0.7685E+01
  -4.216  0.3576E+00  0.7689E+01
  -4.206  0.3501E+00  0.7693E+01
  -4.196  0.3426E+00  0.7696E+01
  -4.186  0.3351E+00  0.7699E+01
  -4.176  0.3275E+00  0.7703E+01
  -4.166  0.3200E+00  0.7706E+01
  -4.156  0.3125E+00  0.7709E+01
  -4.146  0.3050E+00  0.7712E+01
  -4.136  0.2974E+00  0.7715E+01
  -4.126  0.2915E+00  0.7718E+01
  -4.116  0.2905E+00  0.7721E+01
  -4.106  0.2895E+00  0.7724E+01
  -4.096  0.2884E+00  0.7727E+01
  -4.086  0.2874E+00  0.7730E+01
  -4.076  0.2863E+00  0.7733E+01
  -4.066  0.2853E+00  0.7736E+01
  -4.056  0.2843E+00  0.7738E+01
  -4.046  0.2832E+00  0.7741E+01
  -4.036  0.2822E+00  0.7744E+01
  -4.026  0.2812E+00  0.7747E+01
  -4.016  0.2801E+00  0.7750E+01
  -4.006  0.2791E+00  0.7752E+01
  -3.996  0.2454E+00  0.7755E+01
  -3.986  0.2460E+00  0.7758E+01
  -3.976  0.2465E+00  0.7760E+01
  -3.966  0.2471E+00  0.7763E+01
  -3.956  0.2476E+00  0.7765E+01
  -3.946  0.2482E+00  0.7768E+01
  -3.936  0.2487E+00  0.7770E+01
  -3.926  0.2493E+00  0.7773E+01
  -3.916  0.2498E+00  0.7775E+01
  -3.906  0.2504E+00  0.7778E+01
  -3.896  0.2487E+00  0.7780E+01
  -3.886  0.2470E+00  0.7782E+01
  -3.876  0.2453E+00  0.7785E+01
  -3.866  0.2436E+00  0.7787E+01
  -3.856  0.2419E+00  0.7790E+01
  -3.846  0.2401E+00  0.7792E+01
  -3.836  0.2376E+00  0.7795E+01
  -3.826  0.2352E+00  0.7797E+01
  -3.816  0.2327E+00  0.7799E+01
  -3.806  0.2299E+00  0.7802E+01
  -3.796  0.2269E+00  0.7804E+01
  -3.786  0.2230E+00  0.7806E+01
  -3.776  0.2191E+00  0.7808E+01
  -3.766  0.2152E+00  0.7811E+01
  -3.756  0.2112E+00  0.7813E+01
  -3.746  0.2092E+00  0.7815E+01
  -3.736  0.2080E+00  0.7817E+01
  -3.726  0.2069E+00  0.7819E+01
  -3.716  0.2057E+00  0.7821E+01
  -3.706  0.2046E+00  0.7823E+01
  -3.696  0.2034E+00  0.7825E+01
  -3.686  0.2022E+00  0.7827E+01
  -3.676  0.2011E+00  0.7829E+01
  -3.666  0.1999E+00  0.7831E+01
  -3.656  0.1987E+00  0.7833E+01
  -3.646  0.1976E+00  0.7835E+01
  -3.636  0.1964E+00  0.7837E+01
  -3.626  0.1953E+00  0.7839E+01
  -3.616  0.1941E+00  0.7841E+01
  -3.606  0.1929E+00  0.7843E+01
  -3.596  0.1918E+00  0.7845E+01
  -3.586  0.1906E+00  0.7847E+01
  -3.576  0.1894E+00  0.7849E+01
  -3.566  0.1883E+00  0.7851E+01
  -3.556  0.1871E+00  0.7852E+01
  -3.546  0.1693E+00  0.7854E+01
  -3.536  0.1690E+00  0.7856E+01
  -3.526  0.1687E+00  0.7858E+01
  -3.516  0.1684E+00  0.7859E+01
  -3.506  0.1681E+00  0.7861E+01
  -3.496  0.1678E+00  0.7863E+01
  -3.486  0.1675E+00  0.7864E+01
  -3.476  0.1671E+00  0.7866E+01
  -3.466  0.1668E+00  0.7868E+01
  -3.456  0.1665E+00  0.7869E+01
  -3.446  0.1662E+00  0.7871E+01
  -3.436  0.1659E+00  0.7873E+01
  -3.426  0.1656E+00  0.7874E+01
  -3.416  0.1653E+00  0.7876E+01
  -3.406  0.1650E+00  0.7878E+01
  -3.396  0.1642E+00  0.7879E+01
  -3.386  0.1627E+00  0.7881E+01
  -3.376  0.1612E+00  0.7883E+01
  -3.366  0.1597E+00  0.7884E+01
  -3.356  0.1582E+00  0.7886E+01
  -3.346  0.1567E+00  0.7887E+01
  -3.336  0.1552E+00  0.7889E+01
  -3.326  0.1538E+00  0.7890E+01
  -3.316  0.1523E+00  0.7892E+01
  -3.306  0.1508E+00  0.7893E+01
  -3.296  0.1490E+00  0.7895E+01
  -3.286  0.1471E+00  0.7896E+01
  -3.276  0.1452E+00  0.7898E+01
  -3.266  0.1432E+00  0.7899E+01
  -3.256  0.1413E+00  0.7901E+01
  -3.246  0.1392E+00  0.7902E+01
  -3.236  0.1369E+00  0.7904E+01
  -3.226  0.1351E+00  0.7905E+01
  -3.216  0.1342E+00  0.7906E+01
  -3.206  0.1334E+00  0.7908E+01
  -3.196  0.1326E+00  0.7909E+01
  -3.186  0.1317E+00  0.7910E+01
  -3.176  0.1309E+00  0.7912E+01
  -3.166  0.1301E+00  0.7913E+01
  -3.156  0.1292E+00  0.7914E+01
  -3.146  0.1284E+00  0.7915E+01
  -3.136  0.1276E+00  0.7917E+01
  -3.126  0.1268E+00  0.7918E+01
  -3.116  0.1259E+00  0.7919E+01
  -3.106  0.1251E+00  0.7920E+01
  -3.096  0.1243E+00  0.7922E+01
  -3.086  0.1234E+00  0.7923E+01
  -3.076  0.1226E+00  0.7924E+01
  -3.066  0.1218E+00  0.7925E+01
  -3.056  0.1209E+00  0.7927E+01
  -3.046  0.1201E+00  0.7928E+01
  -3.036  0.1193E+00  0.7929E+01
  -3.026  0.1185E+00  0.7930E+01
  -3.016  0.1176E+00  0.7931E+01
  -3.006  0.1168E+00  0.7933E+01
  -2.996  0.1160E+00  0.7934E+01
  -2.986  0.1151E+00  0.7935E+01
  -2.976  0.1143E+00  0.7936E+01
  -2.966  0.1135E+00  0.7937E+01
  -2.956  0.1012E+00  0.7938E+01
  -2.946  0.1009E+00  0.7939E+01
  -2.936  0.1005E+00  0.7940E+01
  -2.926  0.1002E+00  0.7941E+01
  -2.916  0.9983E-01  0.7942E+01
  -2.906  0.9949E-01  0.7943E+01
  -2.896  0.9914E-01  0.7944E+01
  -2.886  0.9880E-01  0.7945E+01
  -2.876  0.9845E-01  0.7946E+01
  -2.866  0.9811E-01  0.7947E+01
  -2.856  0.9776E-01  0.7948E+01
  -2.846  0.9742E-01  0.7949E+01
  -2.836  0.9708E-01  0.7950E+01
  -2.826  0.9673E-01  0.7951E+01
  -2.816  0.9639E-01  0.7952E+01
  -2.806  0.9604E-01  0.7953E+01
  -2.796  0.9570E-01  0.7954E+01
  -2.786  0.9535E-01  0.7955E+01
  -2.776  0.9447E-01  0.7956E+01
  -2.766  0.9330E-01  0.7957E+01
  -2.756  0.9212E-01  0.7958E+01
  -2.746  0.9094E-01  0.7959E+01
  -2.736  0.8977E-01  0.7960E+01
  -2.726  0.8859E-01  0.7960E+01
  -2.716  0.8739E-01  0.7961E+01
  -2.706  0.8602E-01  0.7962E+01
  -2.696  0.8464E-01  0.7963E+01
  -2.686  0.8327E-01  0.7964E+01
  -2.676  0.8190E-01  0.7965E+01
  -2.666  0.8052E-01  0.7966E+01
  -2.656  0.7915E-01  0.7966E+01
  -2.646  0.7777E-01  0.7967E+01
  -2.636  0.7640E-01  0.7968E+01
  -2.626  0.7503E-01  0.7969E+01
  -2.616  0.7365E-01  0.7969E+01
  -2.606  0.7228E-01  0.7970E+01
  -2.596  0.7091E-01  0.7971E+01
  -2.586  0.6953E-01  0.7972E+01
  -2.576  0.6816E-01  0.7972E+01
  -2.566  0.6679E-01  0.7973E+01
  -2.556  0.6584E-01  0.7974E+01
  -2.546  0.6535E-01  0.7974E+01
  -2.536  0.6486E-01  0.7975E+01
  -2.526  0.6437E-01  0.7976E+01
  -2.516  0.6388E-01  0.7976E+01
  -2.506  0.6339E-01  0.7977E+01
  -2.496  0.6290E-01  0.7977E+01
  -2.486  0.6241E-01  0.7978E+01
  -2.476  0.6192E-01  0.7979E+01
  -2.466  0.6143E-01  0.7979E+01
  -2.456  0.6094E-01  0.7980E+01
  -2.446  0.6045E-01  0.7981E+01
  -2.436  0.5996E-01  0.7981E+01
  -2.426  0.5948E-01  0.7982E+01
  -2.416  0.5899E-01  0.7982E+01
  -2.406  0.5850E-01  0.7983E+01
  -2.396  0.5801E-01  0.7983E+01
  -2.386  0.5752E-01  0.7984E+01
  -2.376  0.5703E-01  0.7985E+01
  -2.366  0.5654E-01  0.7985E+01
  -2.356  0.5605E-01  0.7986E+01
  -2.346  0.5556E-01  0.7986E+01
  -2.336  0.5507E-01  0.7987E+01
  -2.326  0.5458E-01  0.7987E+01
  -2.316  0.5409E-01  0.7988E+01
  -2.306  0.5360E-01  0.7988E+01
  -2.296  0.5311E-01  0.7989E+01
  -2.286  0.5263E-01  0.7990E+01
  -2.276  0.5214E-01  0.7990E+01
  -2.266  0.5165E-01  0.7991E+01
  -2.256  0.3561E-01  0.7991E+01
  -2.246  0.3490E-01  0.7991E+01
  -2.236  0.3420E-01  0.7992E+01
  -2.226  0.3350E-01  0.7992E+01
  -2.216  0.3279E-01  0.7992E+01
  -2.206  0.3209E-01  0.7993E+01
  -2.196  0.3138E-01  0.7993E+01
  -2.186  0.3068E-01  0.7993E+01
  -2.176  0.2997E-01  0.7994E+01
  -2.166  0.2927E-01  0.7994E+01
  -2.156  0.2856E-01  0.7994E+01
  -2.146  0.2786E-01  0.7994E+01
  -2.136  0.2716E-01  0.7995E+01
  -2.126  0.2645E-01  0.7995E+01
  -2.116  0.2575E-01  0.7995E+01
  -2.106  0.2504E-01  0.7996E+01
  -2.096  0.2434E-01  0.7996E+01
  -2.086  0.2363E-01  0.7996E+01
  -2.076  0.2293E-01  0.7996E+01
  -2.066  0.2223E-01  0.7996E+01
  -2.056  0.2152E-01  0.7997E+01
  -2.046  0.2082E-01  0.7997E+01
  -2.036  0.2011E-01  0.7997E+01
  -2.026  0.1941E-01  0.7997E+01
  -2.016  0.1870E-01  0.7998E+01
  -2.006  0.1800E-01  0.7998E+01
  -1.996  0.1729E-01  0.7998E+01
  -1.986  0.1659E-01  0.7998E+01
  -1.976  0.1589E-01  0.7998E+01
  -1.966  0.1518E-01  0.7998E+01
  -1.956  0.1448E-01  0.7999E+01
  -1.946  0.1377E-01  0.7999E+01
  -1.936  0.1307E-01  0.7999E+01
  -1.926  0.1236E-01  0.7999E+01
  -1.916  0.1166E-01  0.7999E+01
  -1.906  0.1095E-01  0.7999E+01
  -1.896  0.1025E-01  0.7999E+01
  -1.886  0.9546E-02  0.7999E+01
  -1.876  0.8842E-02  0.7999E+01
  -1.866  0.8137E-02  0.8000E+01
  -1.856  0.7433E-02  0.8000E+01
  -1.846  0.6729E-02  0.8000E+01
  -1.836  0.6024E-02  0.8000E+01
  -1.826  0.5320E-02  0.8000E+01
  -1.816  0.4616E-02  0.8000E+01
  -1.806  0.3911E-02  0.8000E+01
  -1.796  0.3207E-02  0.8000E+01
  -1.786  0.2502E-02  0.8000E+01
  -1.776  0.1798E-02  0.8000E+01
  -1.766  0.1094E-02  0.8000E+01
  -1.756  0.3893E-03  0.8000E+01
  -1.746  0.3293E-03  0.8000E+01
  -1.736  0.1065E-02  0.8000E+01
  -1.726  0.1802E-02  0.8000E+01
  -1.716  0.2538E-02  0.8000E+01
  -1.706  0.3274E-02  0.8000E+01
  -1.696  0.4010E-02  0.8000E+01
  -1.686  0.4746E-02  0.8000E+01
  -1.676  0.5482E-02  0.8000E+01
  -1.666  0.6219E-02  0.8000E+01
  -1.656  0.6955E-02  0.8000E+01
  -1.646  0.7691E-02  0.8000E+01
  -1.636  0.8427E-02  0.8000E+01
  -1.626  0.9163E-02  0.8001E+01
  -1.616  0.9900E-02  0.8001E+01
  -1.606  0.1064E-01  0.8001E+01
  -1.596  0.1137E-01  0.8001E+01
  -1.586  0.1211E-01  0.8001E+01
  -1.576  0.1284E-01  0.8001E+01
  -1.566  0.1358E-01  0.8001E+01
  -1.556  0.1432E-01  0.8001E+01
  -1.546  0.1505E-01  0.8002E+01
  -1.536  0.1579E-01  0.8002E+01
  -1.526  0.1653E-01  0.8002E+01
  -1.516  0.1726E-01  0.8002E+01
  -1.506  0.1800E-01  0.8002E+01
  -1.496  0.1873E-01  0.8002E+01
  -1.486  0.1947E-01  0.8003E+01
  -1.476  0.2021E-01  0.8003E+01
  -1.466  0.2094E-01  0.8003E+01
  -1.456  0.2168E-01  0.8003E+01
  -1.446  0.2241E-01  0.8003E+01
  -1.436  0.2315E-01  0.8004E+01
  -1.426  0.2389E-01  0.8004E+01
  -1.416  0.2462E-01  0.8004E+01
  -1.406  0.2536E-01  0.8004E+01
  -1.396  0.2610E-01  0.8005E+01
  -1.386  0.2683E-01  0.8005E+01
  -1.376  0.2757E-01  0.8005E+01
  -1.366  0.2830E-01  0.8005E+01
  -1.356  0.2904E-01  0.8006E+01
  -1.346  0.2978E-01  0.8006E+01
  -1.336  0.3051E-01  0.8006E+01
  -1.326  0.3125E-01  0.8007E+01
  -1.316  0.3198E-01  0.8007E+01
  -1.306  0.3272E-01  0.8007E+01
  -1.296  0.3346E-01  0.8008E+01
  -1.286  0.3419E-01  0.8008E+01
  -1.276  0.3493E-01  0.8008E+01
  -1.266  0.3567E-01  0.8009E+01
  -1.256  0.3640E-01  0.8009E+01
  -1.246  0.5606E-01  0.8009E+01
  -1.236  0.5655E-01  0.8010E+01
  -1.226  0.5705E-01  0.8011E+01
  -1.216  0.5754E-01  0.8011E+01
  -1.206  0.5803E-01  0.8012E+01
  -1.196  0.5853E-01  0.8012E+01
  -1.186  0.5902E-01  0.8013E+01
  -1.176  0.5952E-01  0.8013E+01
  -1.166  0.6001E-01  0.8014E+01
  -1.156  0.6051E-01  0.8015E+01
  -1.146  0.6100E-01  0.8015E+01
  -1.136  0.6150E-01  0.8016E+01
  -1.126  0.6199E-01  0.8017E+01
  -1.116  0.6249E-01  0.8017E+01
  -1.106  0.6298E-01  0.8018E+01
  -1.096  0.6348E-01  0.8018E+01
  -1.086  0.6397E-01  0.8019E+01
  -1.076  0.6447E-01  0.8020E+01
  -1.066  0.6496E-01  0.8020E+01
  -1.056  0.6545E-01  0.8021E+01
  -1.046  0.6595E-01  0.8022E+01
  -1.036  0.6644E-01  0.8022E+01
  -1.026  0.6694E-01  0.8023E+01
  -1.016  0.6743E-01  0.8024E+01
  -1.006  0.6793E-01  0.8024E+01
  -0.996  0.6842E-01  0.8025E+01
  -0.986  0.6892E-01  0.8026E+01
  -0.976  0.7072E-01  0.8026E+01
  -0.966  0.7263E-01  0.8027E+01
  -0.956  0.7455E-01  0.8028E+01
  -0.946  0.7646E-01  0.8029E+01
  -0.936  0.7837E-01  0.8029E+01
  -0.926  0.8029E-01  0.8030E+01
  -0.916  0.8220E-01  0.8031E+01
  -0.906  0.8411E-01  0.8032E+01
  -0.896  0.8603E-01  0.8033E+01
  -0.886  0.8794E-01  0.8034E+01
  -0.876  0.8986E-01  0.8034E+01
  -0.866  0.9177E-01  0.8035E+01
  -0.856  0.9368E-01  0.8036E+01
  -0.846  0.9560E-01  0.8037E+01
  -0.836  0.9751E-01  0.8038E+01
  -0.826  0.9942E-01  0.8039E+01
  -0.816  0.1013E+00  0.8040E+01
  -0.806  0.1033E+00  0.8041E+01
  -0.796  0.1047E+00  0.8042E+01
  -0.786  0.1060E+00  0.8043E+01
  -0.776  0.1073E+00  0.8044E+01
  -0.766  0.1085E+00  0.8045E+01
  -0.756  0.1091E+00  0.8046E+01
  -0.746  0.1090E+00  0.8048E+01
  -0.736  0.1089E+00  0.8049E+01
  -0.726  0.1088E+00  0.8050E+01
  -0.716  0.1088E+00  0.8051E+01
  -0.706  0.1087E+00  0.8052E+01
  -0.696  0.1086E+00  0.8053E+01
  -0.686  0.1085E+00  0.8054E+01
  -0.676  0.1084E+00  0.8055E+01
  -0.666  0.1083E+00  0.8056E+01
  -0.656  0.1082E+00  0.8057E+01
  -0.646  0.1081E+00  0.8058E+01
  -0.636  0.1354E+00  0.8060E+01
  -0.626  0.1360E+00  0.8061E+01
  -0.616  0.1367E+00  0.8062E+01
  -0.606  0.1373E+00  0.8064E+01
  -0.596  0.1380E+00  0.8065E+01
  -0.586  0.1386E+00  0.8067E+01
  -0.576  0.1393E+00  0.8068E+01
  -0.566  0.1399E+00  0.8069E+01
  -0.556  0.1406E+00  0.8071E+01
  -0.546  0.1412E+00  0.8072E+01
  -0.536  0.1419E+00  0.8074E+01
  -0.526  0.1425E+00  0.8075E+01
  -0.516  0.1432E+00  0.8076E+01
  -0.506  0.1438E+00  0.8078E+01
  -0.496  0.1445E+00  0.8079E+01
  -0.486  0.1451E+00  0.8081E+01
  -0.476  0.1458E+00  0.8082E+01
  -0.466  0.1491E+00  0.8084E+01
  -0.456  0.1538E+00  0.8085E+01
  -0.446  0.1586E+00  0.8087E+01
  -0.436  0.1633E+00  0.8088E+01
  -0.426  0.1680E+00  0.8090E+01
  -0.416  0.1727E+00  0.8092E+01
  -0.406  0.1774E+00  0.8094E+01
  -0.396  0.1822E+00  0.8095E+01
  -0.386  0.1869E+00  0.8097E+01
  -0.376  0.1916E+00  0.8099E+01
  -0.366  0.1963E+00  0.8101E+01
  -0.356  0.2010E+00  0.8103E+01
  -0.346  0.2058E+00  0.8105E+01
  -0.336  0.2105E+00  0.8107E+01
  -0.326  0.2152E+00  0.8109E+01
  -0.316  0.2199E+00  0.8111E+01
  -0.306  0.2246E+00  0.8114E+01
  -0.296  0.2294E+00  0.8116E+01
  -0.286  0.2197E+00  0.8118E+01
  -0.276  0.2054E+00  0.8120E+01
  -0.266  0.1946E+00  0.8122E+01
  -0.256  0.2751E+00  0.8125E+01
  -0.246  0.2681E+00  0.8127E+01
  -0.236  0.2611E+00  0.8130E+01
  -0.226  0.2540E+00  0.8132E+01
  -0.216  0.2470E+00  0.8135E+01
  -0.206  0.2400E+00  0.8137E+01
  -0.196  0.2330E+00  0.8140E+01
  -0.186  0.2346E+00  0.8142E+01
  -0.176  0.2465E+00  0.8145E+01
  -0.166  0.2584E+00  0.8147E+01
  -0.156  0.2703E+00  0.8150E+01
  -0.146  0.2822E+00  0.8152E+01
  -0.136  0.2941E+00  0.8155E+01
  -0.126  0.3060E+00  0.8158E+01
  -0.116  0.3179E+00  0.8161E+01
  -0.106  0.3298E+00  0.8165E+01
  -0.096  0.3417E+00  0.8168E+01
  -0.086  0.3536E+00  0.8172E+01
  -0.076  0.3655E+00  0.8175E+01
  -0.066  0.6834E+00  0.8183E+01
  -0.056  0.4180E+00  0.8187E+01
  -0.046  0.4356E+00  0.8192E+01
  -0.036  0.4532E+00  0.8196E+01
  -0.026  0.4708E+00  0.8201E+01
  -0.016  0.6284E+00  0.8206E+01
  -0.006  0.9101E+00  0.8214E+01
   0.004  0.1206E+01  0.8224E+01
   0.014  0.9366E+00  0.8234E+01
   0.024  0.1054E+01  0.8244E+01
   0.034  0.6939E+00  0.8253E+01
   0.044  0.6716E+00  0.8260E+01
   0.054  0.6493E+00  0.8266E+01
   0.064  0.6270E+00  0.8273E+01
   0.074  0.6048E+00  0.8279E+01
   0.084  0.5833E+00  0.8285E+01
   0.094  0.5623E+00  0.8290E+01
   0.104  0.5412E+00  0.8296E+01
   0.114  0.5230E+00  0.8301E+01
   0.124  0.5080E+00  0.8306E+01
   0.134  0.4929E+00  0.8311E+01
   0.144  0.4779E+00  0.8316E+01
   0.154  0.4646E+00  0.8321E+01
   0.164  0.4570E+00  0.8326E+01
   0.174  0.4511E+00  0.8330E+01
   0.184  0.4454E+00  0.8335E+01
   0.194  0.4397E+00  0.8339E+01
   0.204  0.4340E+00  0.8343E+01
   0.214  0.4283E+00  0.8348E+01
   0.224  0.4226E+00  0.8352E+01
   0.234  0.4170E+00  0.8356E+01
   0.244  0.4113E+00  0.8360E+01
   0.254  0.4052E+00  0.8364E+01
   0.264  0.3991E+00  0.8368E+01
   0.274  0.3940E+00  0.8372E+01
   0.284  0.3898E+00  0.8376E+01
   0.294  0.3856E+00  0.8380E+01
   0.304  0.3814E+00  0.8384E+01
   0.314  0.3772E+00  0.8388E+01
   0.324  0.3730E+00  0.8392E+01
   0.334  0.3688E+00  0.8395E+01
   0.344  0.3650E+00  0.8399E+01
   0.354  0.3618E+00  0.8403E+01
   0.364  0.3588E+00  0.8406E+01
   0.374  0.3565E+00  0.8410E+01
   0.384  0.3543E+00  0.8413E+01
   0.394  0.3520E+00  0.8417E+01
   0.404  0.3497E+00  0.8420E+01
   0.414  0.3475E+00  0.8424E+01
   0.424  0.3452E+00  0.8427E+01
   0.434  0.3429E+00  0.8431E+01
   0.444  0.3407E+00  0.8434E+01
   0.454  0.3386E+00  0.8438E+01
   0.464  0.3365E+00  0.8441E+01
   0.474  0.3345E+00  0.8444E+01
   0.484  0.3325E+00  0.8448E+01
   0.494  0.3305E+00  0.8451E+01
   0.504  0.3285E+00  0.8454E+01
   0.514  0.3264E+00  0.8457E+01
   0.524  0.3244E+00  0.8461E+01
   0.534  0.3224E+00  0.8464E+01
   0.544  0.3204E+00  0.8467E+01
   0.554  0.3184E+00  0.8470E+01
   0.564  0.3164E+00  0.8474E+01
   0.574  0.3143E+00  0.8477E+01
   0.584  0.3126E+00  0.8480E+01
   0.594  0.3108E+00  0.8483E+01
   0.604  0.3091E+00  0.8486E+01
   0.614  0.3073E+00  0.8489E+01
   0.624  0.3058E+00  0.8492E+01
   0.634  0.3044E+00  0.8495E+01
   0.644  0.3032E+00  0.8498E+01
   0.654  0.3019E+00  0.8501E+01
   0.664  0.3006E+00  0.8504E+01
   0.674  0.2994E+00  0.8507E+01
   0.684  0.2981E+00  0.8510E+01
   0.694  0.2968E+00  0.8513E+01
   0.704  0.2956E+00  0.8516E+01
   0.714  0.2943E+00  0.8519E+01
   0.724  0.2930E+00  0.8522E+01
   0.734  0.2918E+00  0.8525E+01
   0.744  0.2905E+00  0.8528E+01
   0.754  0.2892E+00  0.8531E+01
   0.764  0.2880E+00  0.8534E+01
   0.774  0.2866E+00  0.8537E+01
   0.784  0.2853E+00  0.8540E+01
   0.794  0.2839E+00  0.8542E+01
   0.804  0.2825E+00  0.8545E+01
   0.814  0.2812E+00  0.8548E+01
   0.824  0.2798E+00  0.8551E+01
   0.834  0.2785E+00  0.8554E+01
   0.844  0.2772E+00  0.8556E+01
   0.854  0.2750E+00  0.8559E+01
   0.864  0.2741E+00  0.8562E+01
   0.874  0.2731E+00  0.8565E+01
   0.884  0.2722E+00  0.8567E+01
   0.894  0.2713E+00  0.8570E+01
   0.904  0.2704E+00  0.8573E+01
   0.914  0.2695E+00  0.8575E+01
   0.924  0.2687E+00  0.8578E+01
   0.934  0.2678E+00  0.8581E+01
   0.944  0.2882E+00  0.8584E+01
   0.954  0.4107E+00  0.8587E+01
   0.964  0.5331E+00  0.8592E+01
   0.974  0.4382E+00  0.8597E+01
   0.984  0.4477E+00  0.8601E+01
   0.994  0.4573E+00  0.8606E+01
   1.004  0.4668E+00  0.8610E+01
   1.014  0.4764E+00  0.8615E+01
   1.024  0.4859E+00  0.8620E+01
   1.034  0.4737E+00  0.8625E+01
   1.044  0.4601E+00  0.8629E+01
   1.054  0.4499E+00  0.8634E+01
   1.064  0.4527E+00  0.8638E+01
   1.074  0.4556E+00  0.8643E+01
   1.084  0.4585E+00  0.8648E+01
   1.094  0.4614E+00  0.8652E+01
   1.104  0.4643E+00  0.8657E+01
   1.114  0.4672E+00  0.8661E+01
   1.124  0.4701E+00  0.8666E+01
   1.134  0.4730E+00  0.8671E+01
   1.144  0.4547E+00  0.8675E+01
   1.154  0.4532E+00  0.8680E+01
   1.164  0.4517E+00  0.8685E+01
   1.174  0.4501E+00  0.8689E+01
   1.184  0.4486E+00  0.8694E+01
   1.194  0.4484E+00  0.8698E+01
   1.204  0.4495E+00  0.8702E+01
   1.214  0.4506E+00  0.8707E+01
   1.224  0.4518E+00  0.8711E+01
   1.234  0.4529E+00  0.8716E+01
   1.244  0.4541E+00  0.8721E+01
   1.254  0.4553E+00  0.8725E+01
   1.264  0.4564E+00  0.8730E+01
   1.274  0.4560E+00  0.8734E+01
   1.284  0.4505E+00  0.8739E+01
   1.294  0.4451E+00  0.8743E+01
   1.304  0.4422E+00  0.8748E+01
   1.314  0.4419E+00  0.8752E+01
   1.324  0.4416E+00  0.8757E+01
   1.334  0.4413E+00  0.8761E+01
   1.344  0.4410E+00  0.8765E+01
   1.354  0.4407E+00  0.8770E+01
   1.364  0.4404E+00  0.8774E+01
   1.374  0.4401E+00  0.8779E+01
   1.384  0.4400E+00  0.8783E+01
   1.394  0.4404E+00  0.8787E+01
   1.404  0.4409E+00  0.8792E+01
   1.414  0.4414E+00  0.8796E+01
   1.424  0.4417E+00  0.8801E+01
   1.434  0.4418E+00  0.8805E+01
   1.444  0.4420E+00  0.8809E+01
   1.454  0.4422E+00  0.8814E+01
   1.464  0.4363E+00  0.8818E+01
   1.474  0.4348E+00  0.8823E+01
   1.484  0.4335E+00  0.8827E+01
   1.494  0.4321E+00  0.8831E+01
   1.504  0.4308E+00  0.8836E+01
   1.514  0.4295E+00  0.8840E+01
   1.524  0.4288E+00  0.8844E+01
   1.534  0.4288E+00  0.8848E+01
   1.544  0.4288E+00  0.8853E+01
   1.554  0.4288E+00  0.8857E+01
   1.564  0.4288E+00  0.8861E+01
   1.574  0.4288E+00  0.8866E+01
   1.584  0.4288E+00  0.8870E+01
   1.594  0.4288E+00  0.8874E+01
   1.604  0.4288E+00  0.8878E+01
   1.614  0.4288E+00  0.8883E+01
   1.624  0.4288E+00  0.8887E+01
   1.634  0.4714E+00  0.8891E+01
   1.644  0.5903E+00  0.8897E+01
   1.654  0.7092E+00  0.8903E+01
   1.664  0.6013E+00  0.8910E+01
   1.674  0.6115E+00  0.8916E+01
   1.684  0.6216E+00  0.8922E+01
   1.694  0.6288E+00  0.8928E+01
   1.704  0.6361E+00  0.8935E+01
   1.714  0.6439E+00  0.8941E+01
   1.724  0.6317E+00  0.8947E+01
   1.734  0.6188E+00  0.8954E+01
   1.744  0.6088E+00  0.8960E+01
   1.754  0.6117E+00  0.8966E+01
   1.764  0.6912E+00  0.8972E+01
   1.774  0.8118E+00  0.8980E+01
   1.784  0.9324E+00  0.8989E+01
   1.794  0.7968E+00  0.8997E+01
   1.804  0.8101E+00  0.9005E+01
   1.814  0.8233E+00  0.9013E+01
   1.824  0.8365E+00  0.9021E+01
   1.834  0.8298E+00  0.9029E+01
   1.844  0.8337E+00  0.9038E+01
   1.854  0.8206E+00  0.9046E+01
   1.864  0.8075E+00  0.9054E+01
   1.874  0.8012E+00  0.9062E+01
   1.884  0.8043E+00  0.9070E+01
   1.894  0.8095E+00  0.9078E+01
   1.904  0.8147E+00  0.9086E+01
   1.914  0.8198E+00  0.9095E+01
   1.924  0.8250E+00  0.9103E+01
   1.934  0.8302E+00  0.9111E+01
   1.944  0.8355E+00  0.9119E+01
   1.954  0.8243E+00  0.9128E+01
   1.964  0.8217E+00  0.9136E+01
   1.974  0.8164E+00  0.9144E+01
   1.984  0.8100E+00  0.9152E+01
   1.994  0.8038E+00  0.9160E+01
   2.004  0.8023E+00  0.9168E+01
   2.014  0.8018E+00  0.9176E+01
   2.024  0.8034E+00  0.9185E+01
   2.034  0.8051E+00  0.9193E+01
   2.044  0.8067E+00  0.9201E+01
   2.054  0.8083E+00  0.9209E+01
   2.064  0.8099E+00  0.9217E+01
   2.074  0.8116E+00  0.9225E+01
   2.084  0.8137E+00  0.9233E+01
   2.094  0.8150E+00  0.9241E+01
   2.104  0.8115E+00  0.9249E+01
   2.114  0.8077E+00  0.9257E+01
   2.124  0.8048E+00  0.9265E+01
   2.134  0.8063E+00  0.9274E+01
   2.144  0.8077E+00  0.9282E+01
   2.154  0.8091E+00  0.9290E+01
   2.164  0.8040E+00  0.9298E+01
   2.174  0.8035E+00  0.9306E+01
   2.184  0.8030E+00  0.9314E+01
   2.194  0.8025E+00  0.9322E+01
   2.204  0.8020E+00  0.9330E+01
   2.214  0.8021E+00  0.9338E+01
   2.224  0.8032E+00  0.9346E+01
   2.234  0.8047E+00  0.9354E+01
   2.244  0.8062E+00  0.9362E+01
   2.254  0.8077E+00  0.9370E+01
   2.264  0.8087E+00  0.9378E+01
   2.274  0.8085E+00  0.9386E+01
   2.284  0.8083E+00  0.9394E+01
   2.294  0.8023E+00  0.9402E+01
   2.304  0.8015E+00  0.9410E+01
   2.314  0.8006E+00  0.9418E+01
   2.324  0.7998E+00  0.9426E+01
   2.334  0.7991E+00  0.9434E+01
   2.344  0.7985E+00  0.9442E+01
   2.354  0.7988E+00  0.9450E+01
   2.364  0.7996E+00  0.9458E+01
   2.374  0.8004E+00  0.9466E+01
   2.384  0.8013E+00  0.9474E+01
   2.394  0.7995E+00  0.9482E+01
   2.404  0.7976E+00  0.9490E+01
   2.414  0.7960E+00  0.9498E+01
   2.424  0.7962E+00  0.9506E+01
   2.434  0.7963E+00  0.9514E+01
   2.444  0.7964E+00  0.9522E+01
   2.454  0.7966E+00  0.9530E+01
   2.464  0.7968E+00  0.9538E+01
   2.474  0.7973E+00  0.9546E+01
   2.484  0.7977E+00  0.9554E+01
   2.494  0.7982E+00  0.9562E+01
   2.504  0.7990E+00  0.9570E+01
   2.514  0.8000E+00  0.9578E+01
   2.524  0.7986E+00  0.9586E+01
   2.534  0.7968E+00  0.9594E+01
   2.544  0.7951E+00  0.9602E+01
   2.554  0.7953E+00  0.9610E+01
   2.564  0.7954E+00  0.9618E+01
   2.574  0.7956E+00  0.9626E+01
   2.584  0.7958E+00  0.9634E+01
   2.594  0.7960E+00  0.9642E+01
   2.604  0.7962E+00  0.9650E+01
   2.614  0.7964E+00  0.9658E+01
   2.624  0.7943E+00  0.9666E+01
   2.634  0.7942E+00  0.9674E+01
   2.644  0.7943E+00  0.9682E+01
   2.654  0.7945E+00  0.9689E+01
   2.664  0.7916E+00  0.9697E+01
   2.674  0.7908E+00  0.9705E+01
   2.684  0.7903E+00  0.9713E+01
   2.694  0.7898E+00  0.9721E+01
   2.704  0.7893E+00  0.9729E+01
   2.714  0.7887E+00  0.9737E+01
   2.724  0.7883E+00  0.9745E+01
   2.734  0.7882E+00  0.9753E+01
   2.744  0.7880E+00  0.9761E+01
   2.754  0.7879E+00  0.9768E+01
   2.764  0.7878E+00  0.9776E+01
   2.774  0.8965E+00  0.9785E+01
   2.784  0.1016E+01  0.9794E+01
   2.794  0.9564E+00  0.9805E+01
   2.804  0.9630E+00  0.9814E+01
   2.814  0.9724E+00  0.9824E+01
   2.824  0.9819E+00  0.9834E+01
   2.834  0.9914E+00  0.9844E+01
   2.844  0.1001E+01  0.9854E+01
   2.854  0.9986E+00  0.9864E+01
   2.864  0.9865E+00  0.9874E+01
   2.874  0.9744E+00  0.9883E+01
   2.884  0.9744E+00  0.9893E+01
   2.894  0.9782E+00  0.9903E+01
   2.904  0.9820E+00  0.9913E+01
   2.914  0.9858E+00  0.9923E+01
   2.924  0.9896E+00  0.9932E+01
   2.934  0.9934E+00  0.9942E+01
   2.944  0.9972E+00  0.9952E+01
   2.954  0.1001E+01  0.9962E+01
   2.964  0.9866E+00  0.9972E+01
   2.974  0.9858E+00  0.9982E+01
   2.984  0.9840E+00  0.9992E+01
   2.994  0.9823E+00  0.1000E+02
   3.004  0.9810E+00  0.1001E+02
   3.014  0.9794E+00  0.1002E+02
   3.024  0.9798E+00  0.1003E+02
   3.034  0.9810E+00  0.1004E+02
   3.044  0.9826E+00  0.1005E+02
   3.054  0.9843E+00  0.1006E+02
   3.064  0.9859E+00  0.1007E+02
   3.074  0.9875E+00  0.1008E+02
   3.084  0.9892E+00  0.1009E+02
   3.094  0.9911E+00  0.1010E+02
   3.104  0.9899E+00  0.1011E+02
   3.114  0.9839E+00  0.1012E+02
   3.124  0.9778E+00  0.1013E+02
   3.134  0.9754E+00  0.1014E+02
   3.144  0.9755E+00  0.1015E+02
   3.154  0.9756E+00  0.1016E+02
   3.164  0.9757E+00  0.1017E+02
   3.174  0.9759E+00  0.1018E+02
   3.184  0.9761E+00  0.1019E+02
   3.194  0.9762E+00  0.1020E+02
   3.204  0.9764E+00  0.1021E+02
   3.214  0.9768E+00  0.1022E+02
   3.224  0.9779E+00  0.1023E+02
   3.234  0.9792E+00  0.1024E+02
   3.244  0.9805E+00  0.1025E+02
   3.254  0.9818E+00  0.1026E+02
   3.264  0.9832E+00  0.1027E+02
   3.274  0.9846E+00  0.1028E+02
   3.284  0.9859E+00  0.1029E+02
   3.294  0.9873E+00  0.1030E+02
   3.304  0.9809E+00  0.1031E+02
   3.314  0.9803E+00  0.1032E+02
   3.324  0.9796E+00  0.1033E+02
   3.334  0.9771E+00  0.1034E+02
   3.344  0.9758E+00  0.1035E+02
   3.354  0.9751E+00  0.1035E+02
   3.364  0.9752E+00  0.1036E+02
   3.374  0.9753E+00  0.1037E+02
   3.384  0.9755E+00  0.1038E+02
   3.394  0.9758E+00  0.1039E+02
   3.404  0.9763E+00  0.1040E+02
   3.414  0.9768E+00  0.1041E+02
   3.424  0.9773E+00  0.1042E+02
   3.434  0.9769E+00  0.1043E+02
   3.444  0.9763E+00  0.1044E+02
   3.454  0.9766E+00  0.1045E+02
   3.464  0.9769E+00  0.1046E+02
   3.474  0.9754E+00  0.1047E+02
   3.484  0.9754E+00  0.1048E+02
   3.494  0.9754E+00  0.1049E+02
   3.504  0.9756E+00  0.1050E+02
   3.514  0.9759E+00  0.1051E+02
   3.524  0.9742E+00  0.1052E+02
   3.534  0.9719E+00  0.1053E+02
   3.544  0.9696E+00  0.1054E+02
   3.554  0.9693E+00  0.1055E+02
   3.564  0.9692E+00  0.1056E+02
   3.574  0.9691E+00  0.1057E+02
   3.584  0.9689E+00  0.1058E+02
   3.594  0.9688E+00  0.1059E+02
   3.604  0.9687E+00  0.1060E+02
   3.614  0.9686E+00  0.1061E+02
   3.624  0.9686E+00  0.1062E+02
   3.634  0.9688E+00  0.1063E+02
   3.644  0.9693E+00  0.1064E+02
   3.654  0.9699E+00  0.1065E+02
   3.664  0.9705E+00  0.1066E+02
   3.674  0.9711E+00  0.1067E+02
   3.684  0.9717E+00  0.1068E+02
   3.694  0.9724E+00  0.1069E+02
   3.704  0.9731E+00  0.1070E+02
   3.714  0.9738E+00  0.1071E+02
   3.724  0.9742E+00  0.1071E+02
   3.734  0.9738E+00  0.1072E+02
   3.744  0.9734E+00  0.1073E+02
   3.754  0.9736E+00  0.1074E+02
   3.764  0.9744E+00  0.1075E+02
   3.774  0.9754E+00  0.1076E+02
   3.784  0.9764E+00  0.1077E+02
   3.794  0.9777E+00  0.1078E+02
   3.804  0.9752E+00  0.1079E+02
   3.814  0.9757E+00  0.1080E+02
   3.824  0.9762E+00  0.1081E+02
   3.834  0.9767E+00  0.1082E+02
   3.844  0.9773E+00  0.1083E+02
   3.854  0.9782E+00  0.1084E+02
   3.864  0.9793E+00  0.1085E+02
   3.874  0.9795E+00  0.1086E+02
   3.884  0.9797E+00  0.1087E+02
   3.894  0.9801E+00  0.1088E+02
   3.904  0.9815E+00  0.1089E+02
   3.914  0.9825E+00  0.1090E+02
   3.924  0.9833E+00  0.1091E+02
   3.934  0.9840E+00  0.1092E+02
   3.944  0.9853E+00  0.1093E+02
   3.954  0.9866E+00  0.1094E+02
   3.964  0.9879E+00  0.1095E+02
   3.974  0.9895E+00  0.1096E+02
   3.984  0.9912E+00  0.1097E+02
   3.994  0.9958E+00  0.1098E+02
   4.004  0.1001E+01  0.1099E+02
   4.014  0.1006E+01  0.1100E+02
   4.024  0.1012E+01  0.1101E+02
   4.034  0.1018E+01  0.1102E+02
   4.044  0.1024E+01  0.1103E+02
   4.054  0.1030E+01  0.1104E+02
   4.064  0.1036E+01  0.1105E+02
   4.074  0.1042E+01  0.1106E+02
   4.084  0.1048E+01  0.1107E+02
   4.094  0.1059E+01  0.1108E+02
   4.104  0.1069E+01  0.1109E+02
   4.114  0.1078E+01  0.1110E+02
   4.124  0.1086E+01  0.1111E+02
   4.134  0.1123E+01  0.1113E+02
   4.144  0.1197E+01  0.1114E+02
   4.154  0.1250E+01  0.1115E+02
   4.164  0.1243E+01  0.1116E+02
   4.174  0.1235E+01  0.1117E+02
   4.184  0.1227E+01  0.1119E+02
   4.194  0.1220E+01  0.1120E+02
   4.204  0.1212E+01  0.1121E+02
   4.214  0.1205E+01  0.1122E+02
   4.224  0.1162E+01  0.1123E+02
   4.234  0.1119E+01  0.1125E+02
   4.244  0.1075E+01  0.1126E+02
   4.254  0.1031E+01  0.1127E+02
   4.264  0.1002E+01  0.1128E+02
   4.274  0.9839E+00  0.1129E+02
   4.284  0.9657E+00  0.1130E+02
   4.294  0.9475E+00  0.1131E+02
   4.304  0.9293E+00  0.1132E+02
   4.314  0.9099E+00  0.1133E+02
   4.324  0.8913E+00  0.1133E+02
   4.334  0.8731E+00  0.1134E+02
   4.344  0.8588E+00  0.1135E+02
   4.354  0.8560E+00  0.1136E+02
   4.364  0.8532E+00  0.1137E+02
   4.374  0.8506E+00  0.1138E+02
   4.384  0.8481E+00  0.1139E+02
   4.394  0.8456E+00  0.1139E+02
   4.404  0.8440E+00  0.1140E+02
   4.414  0.8433E+00  0.1141E+02
   4.424  0.8426E+00  0.1142E+02
   4.434  0.7804E+00  0.1143E+02
   4.444  0.7639E+00  0.1144E+02
   4.454  0.7474E+00  0.1144E+02
   4.464  0.7088E+00  0.1145E+02
   4.474  0.6669E+00  0.1146E+02
   4.484  0.6369E+00  0.1146E+02
   4.494  0.6498E+00  0.1147E+02
   4.504  0.6626E+00  0.1148E+02
   4.514  0.6754E+00  0.1148E+02
   4.524  0.6885E+00  0.1149E+02
   4.534  0.7017E+00  0.1150E+02
   4.544  0.7148E+00  0.1150E+02
   4.554  0.7281E+00  0.1151E+02
   4.564  0.7413E+00  0.1152E+02
   4.574  0.7546E+00  0.1153E+02
   4.584  0.7680E+00  0.1153E+02
   4.594  0.1101E+01  0.1154E+02
   4.604  0.1254E+01  0.1155E+02
   4.614  0.1336E+01  0.1157E+02
   4.624  0.1296E+01  0.1158E+02
   4.634  0.1208E+01  0.1159E+02
   4.644  0.1137E+01  0.1161E+02
   4.654  0.1073E+01  0.1162E+02
   4.664  0.1028E+01  0.1163E+02
   4.674  0.1140E+01  0.1164E+02
   4.684  0.1252E+01  0.1165E+02
   4.694  0.1365E+01  0.1166E+02
   4.704  0.1467E+01  0.1168E+02
   4.714  0.1333E+01  0.1169E+02
   4.724  0.1199E+01  0.1170E+02
   4.734  0.1096E+01  0.1172E+02
   4.744  0.1083E+01  0.1173E+02
   4.754  0.1060E+01  0.1174E+02
   4.764  0.9894E+00  0.1175E+02
   4.774  0.9184E+00  0.1176E+02
   4.784  0.8474E+00  0.1177E+02
   4.794  0.7785E+00  0.1177E+02
   4.804  0.7585E+00  0.1178E+02
   4.814  0.7571E+00  0.1179E+02
   4.824  0.7535E+00  0.1180E+02
   4.834  0.7487E+00  0.1180E+02
   4.844  0.7438E+00  0.1181E+02
   4.854  0.7704E+00  0.1182E+02
   4.864  0.7696E+00  0.1183E+02
   4.874  0.7687E+00  0.1183E+02
   4.884  0.7683E+00  0.1184E+02
   4.894  0.7693E+00  0.1185E+02
   4.904  0.7703E+00  0.1186E+02
   4.914  0.7708E+00  0.1187E+02
   4.924  0.7713E+00  0.1187E+02
   4.934  0.7717E+00  0.1188E+02
   4.944  0.7722E+00  0.1189E+02
   4.954  0.7727E+00  0.1190E+02
   4.964  0.7733E+00  0.1190E+02
   4.974  0.7748E+00  0.1191E+02
   4.984  0.7417E+00  0.1192E+02
   4.994  0.7079E+00  0.1193E+02
   5.004  0.6833E+00  0.1193E+02
   5.014  0.6822E+00  0.1194E+02
   5.024  0.6812E+00  0.1195E+02
   5.034  0.6802E+00  0.1195E+02
   5.044  0.6791E+00  0.1196E+02
   5.054  0.6775E+00  0.1197E+02
   5.064  0.6759E+00  0.1197E+02
   5.074  0.6743E+00  0.1198E+02
   5.084  0.6731E+00  0.1199E+02
   5.094  0.6746E+00  0.1199E+02
   5.104  0.6767E+00  0.1200E+02
   5.114  0.6785E+00  0.1201E+02
   5.124  0.6898E+00  0.1201E+02
   5.134  0.7066E+00  0.1202E+02
   5.144  0.7235E+00  0.1203E+02
   5.154  0.7417E+00  0.1204E+02
   5.164  0.7851E+00  0.1204E+02
   5.174  0.8189E+00  0.1205E+02
   5.184  0.8603E+00  0.1206E+02
   5.194  0.9017E+00  0.1207E+02
   5.204  0.9539E+00  0.1208E+02
   5.214  0.1021E+01  0.1209E+02
   5.224  0.1088E+01  0.1210E+02
   5.234  0.1156E+01  0.1211E+02
   5.244  0.1194E+01  0.1212E+02
   5.254  0.1213E+01  0.1213E+02
   5.264  0.1232E+01  0.1215E+02
   5.274  0.1233E+01  0.1216E+02
   5.284  0.1215E+01  0.1217E+02
   5.294  0.1210E+01  0.1218E+02
   5.304  0.1202E+01  0.1219E+02
   5.314  0.1194E+01  0.1221E+02
   5.324  0.1240E+01  0.1222E+02
   5.334  0.1300E+01  0.1223E+02
   5.344  0.1589E+01  0.1225E+02
   5.354  0.1595E+01  0.1226E+02
   5.364  0.1602E+01  0.1228E+02
   5.374  0.1608E+01  0.1229E+02
   5.384  0.1571E+01  0.1231E+02
   5.394  0.1486E+01  0.1232E+02
   5.404  0.1400E+01  0.1234E+02
   5.414  0.1315E+01  0.1235E+02
   5.424  0.1230E+01  0.1237E+02
   5.434  0.1147E+01  0.1238E+02
   5.444  0.1066E+01  0.1239E+02
   5.454  0.9850E+00  0.1240E+02
   5.464  0.9157E+00  0.1241E+02
   5.474  0.8817E+00  0.1242E+02
   5.484  0.8477E+00  0.1243E+02
   5.494  0.8172E+00  0.1243E+02
   5.504  0.7952E+00  0.1244E+02
   5.514  0.7732E+00  0.1245E+02
   5.524  0.7519E+00  0.1246E+02
   5.534  0.7311E+00  0.1247E+02
   5.544  0.7105E+00  0.1247E+02
   5.554  0.6898E+00  0.1248E+02
   5.564  0.6692E+00  0.1249E+02
   5.574  0.6479E+00  0.1249E+02
   5.584  0.6270E+00  0.1250E+02
   5.594  0.6165E+00  0.1251E+02
   5.604  0.6159E+00  0.1251E+02
   5.614  0.6153E+00  0.1252E+02
   5.624  0.6147E+00  0.1252E+02
   5.634  0.6142E+00  0.1253E+02
   5.644  0.6137E+00  0.1254E+02
   5.654  0.6132E+00  0.1254E+02
   5.664  0.6130E+00  0.1255E+02
   5.674  0.6129E+00  0.1255E+02
   5.684  0.6129E+00  0.1256E+02
   5.694  0.6129E+00  0.1257E+02
   5.704  0.6129E+00  0.1257E+02
   5.714  0.6128E+00  0.1258E+02
   5.724  0.6124E+00  0.1259E+02
   5.734  0.6120E+00  0.1259E+02
   5.744  0.6117E+00  0.1260E+02
   5.754  0.6116E+00  0.1260E+02
   5.764  0.6115E+00  0.1261E+02
   5.774  0.6115E+00  0.1262E+02
   5.784  0.6115E+00  0.1262E+02
   5.794  0.6115E+00  0.1263E+02
   5.804  0.6115E+00  0.1263E+02
   5.814  0.6115E+00  0.1264E+02
   5.824  0.6114E+00  0.1265E+02
   5.834  0.6114E+00  0.1265E+02
   5.844  0.6115E+00  0.1266E+02
   5.854  0.6116E+00  0.1266E+02
   5.864  0.6116E+00  0.1267E+02
   5.874  0.6117E+00  0.1268E+02
   5.884  0.6117E+00  0.1268E+02
   5.894  0.6113E+00  0.1269E+02
   5.904  0.6109E+00  0.1270E+02
   5.914  0.6105E+00  0.1270E+02
   5.924  0.6104E+00  0.1271E+02
   5.934  0.6103E+00  0.1271E+02
   5.944  0.6103E+00  0.1272E+02
   5.954  0.6102E+00  0.1273E+02
   5.964  0.6102E+00  0.1273E+02
   5.974  0.6101E+00  0.1274E+02
   5.984  0.6101E+00  0.1274E+02
   5.994  0.6101E+00  0.1275E+02
   6.004  0.6101E+00  0.1276E+02
   6.014  0.6102E+00  0.1276E+02
   6.024  0.6103E+00  0.1277E+02
   6.034  0.6103E+00  0.1277E+02
   6.044  0.6104E+00  0.1278E+02
   6.054  0.6105E+00  0.1279E+02
   6.064  0.6106E+00  0.1279E+02
   6.074  0.6107E+00  0.1280E+02
   6.084  0.6108E+00  0.1281E+02
   6.094  0.6109E+00  0.1281E+02
   6.104  0.6110E+00  0.1282E+02
   6.114  0.6112E+00  0.1282E+02
   6.124  0.6113E+00  0.1283E+02
   6.134  0.6114E+00  0.1284E+02
   6.144  0.6115E+00  0.1284E+02
   6.154  0.6117E+00  0.1285E+02
   6.164  0.6118E+00  0.1285E+02
   6.174  0.6120E+00  0.1286E+02
   6.184  0.6122E+00  0.1287E+02
   6.194  0.6123E+00  0.1287E+02
   6.204  0.6123E+00  0.1288E+02
   6.214  0.6121E+00  0.1288E+02
   6.224  0.6119E+00  0.1289E+02
   6.234  0.6119E+00  0.1290E+02
   6.244  0.6120E+00  0.1290E+02
   6.254  0.6121E+00  0.1291E+02
   6.264  0.6121E+00  0.1292E+02
   6.274  0.6122E+00  0.1292E+02
   6.284  0.6123E+00  0.1293E+02
   6.294  0.6123E+00  0.1293E+02
   6.304  0.6124E+00  0.1294E+02
   6.314  0.6121E+00  0.1295E+02
   6.324  0.6121E+00  0.1295E+02
   6.334  0.6121E+00  0.1296E+02
   6.344  0.6121E+00  0.1296E+02
   6.354  0.6122E+00  0.1297E+02
   6.364  0.6122E+00  0.1298E+02
   6.374  0.6122E+00  0.1298E+02
   6.384  0.6123E+00  0.1299E+02
   6.394  0.6125E+00  0.1299E+02
   6.404  0.6126E+00  0.1300E+02
   6.414  0.6127E+00  0.1301E+02
   6.424  0.6128E+00  0.1301E+02
   6.434  0.6129E+00  0.1302E+02
   6.444  0.6131E+00  0.1303E+02
   6.454  0.6132E+00  0.1303E+02
   6.464  0.6134E+00  0.1304E+02
   6.474  0.6136E+00  0.1304E+02
   6.484  0.6137E+00  0.1305E+02
   6.494  0.6139E+00  0.1306E+02
   6.504  0.6134E+00  0.1306E+02
   6.514  0.6134E+00  0.1307E+02
   6.524  0.6134E+00  0.1307E+02
   6.534  0.6133E+00  0.1308E+02
   6.544  0.6133E+00  0.1309E+02
   6.554  0.6133E+00  0.1309E+02
   6.564  0.6134E+00  0.1310E+02
   6.574  0.6135E+00  0.1311E+02
   6.584  0.6136E+00  0.1311E+02
   6.594  0.6137E+00  0.1312E+02
   6.604  0.6138E+00  0.1312E+02
   6.614  0.6139E+00  0.1313E+02
   6.624  0.6140E+00  0.1314E+02
   6.634  0.6141E+00  0.1314E+02
   6.644  0.6143E+00  0.1315E+02
   6.654  0.6144E+00  0.1315E+02
   6.664  0.6145E+00  0.1316E+02
   6.674  0.6147E+00  0.1317E+02
   6.684  0.6149E+00  0.1317E+02
   6.694  0.6154E+00  0.1318E+02
   6.704  0.6159E+00  0.1319E+02
   6.714  0.6164E+00  0.1319E+02
   6.724  0.6170E+00  0.1320E+02
   6.734  0.6175E+00  0.1320E+02
   6.744  0.6180E+00  0.1321E+02
   6.754  0.6187E+00  0.1322E+02
   6.764  0.6194E+00  0.1322E+02
   6.774  0.6201E+00  0.1323E+02
   6.784  0.6208E+00  0.1323E+02
   6.794  0.6216E+00  0.1324E+02
   6.804  0.6223E+00  0.1325E+02
   6.814  0.6230E+00  0.1325E+02
   6.824  0.6237E+00  0.1326E+02
   6.834  0.6244E+00  0.1327E+02
   6.844  0.6251E+00  0.1327E+02
   6.854  0.6258E+00  0.1328E+02
   6.864  0.6266E+00  0.1328E+02
   6.874  0.6273E+00  0.1329E+02
   6.884  0.6275E+00  0.1330E+02
   6.894  0.6282E+00  0.1330E+02
   6.904  0.6290E+00  0.1331E+02
   6.914  0.6299E+00  0.1332E+02
   6.924  0.6307E+00  0.1332E+02
   6.934  0.6316E+00  0.1333E+02
   6.944  0.6324E+00  0.1333E+02
   6.954  0.6332E+00  0.1334E+02
   6.964  0.6340E+00  0.1335E+02
   6.974  0.6349E+00  0.1335E+02
   6.984  0.6357E+00  0.1336E+02
   6.994  0.6366E+00  0.1337E+02
   7.004  0.6375E+00  0.1337E+02
   7.014  0.6394E+00  0.1338E+02
   7.024  0.6421E+00  0.1339E+02
   7.034  0.6449E+00  0.1339E+02
   7.044  0.6477E+00  0.1340E+02
   7.054  0.6505E+00  0.1341E+02
   7.064  0.6533E+00  0.1341E+02
   7.074  0.6561E+00  0.1342E+02
   7.084  0.6589E+00  0.1342E+02
   7.094  0.6618E+00  0.1343E+02
   7.104  0.6646E+00  0.1344E+02
   7.114  0.6684E+00  0.1344E+02
   7.124  0.6724E+00  0.1345E+02
   7.134  0.6764E+00  0.1346E+02
   7.144  0.6815E+00  0.1346E+02
   7.154  0.6864E+00  0.1347E+02
   7.164  0.6911E+00  0.1348E+02
   7.174  0.6958E+00  0.1349E+02
   7.184  0.7009E+00  0.1349E+02
   7.194  0.7065E+00  0.1350E+02
   7.204  0.7122E+00  0.1351E+02
   7.214  0.7179E+00  0.1351E+02
   7.224  0.9686E+00  0.1352E+02
   7.234  0.1161E+01  0.1353E+02
   7.244  0.1183E+01  0.1354E+02
   7.254  0.1205E+01  0.1356E+02
   7.264  0.1226E+01  0.1357E+02
   7.274  0.1218E+01  0.1358E+02
   7.284  0.1175E+01  0.1359E+02
   7.294  0.1132E+01  0.1360E+02
   7.304  0.1090E+01  0.1362E+02
   7.314  0.8480E+00  0.1363E+02
   7.324  0.8394E+00  0.1363E+02
   7.334  0.8394E+00  0.1364E+02
   7.344  0.8394E+00  0.1365E+02
   7.354  0.8393E+00  0.1366E+02
   7.364  0.8393E+00  0.1367E+02
   7.374  0.8393E+00  0.1368E+02
   7.384  0.8400E+00  0.1368E+02
   7.394  0.8433E+00  0.1369E+02
   7.404  0.8467E+00  0.1370E+02
   7.414  0.8501E+00  0.1371E+02
   7.424  0.8535E+00  0.1372E+02
   7.434  0.8524E+00  0.1373E+02
   7.444  0.8504E+00  0.1374E+02
   7.454  0.8484E+00  0.1374E+02
   7.464  0.8464E+00  0.1375E+02
   7.474  0.8445E+00  0.1376E+02
   7.484  0.8425E+00  0.1377E+02
   7.494  0.8405E+00  0.1378E+02
   7.504  0.8385E+00  0.1379E+02
   7.514  0.8366E+00  0.1379E+02
   7.524  0.8345E+00  0.1380E+02
   7.534  0.8324E+00  0.1381E+02
   7.544  0.8302E+00  0.1382E+02
   7.554  0.8281E+00  0.1383E+02
   7.564  0.8143E+00  0.1384E+02
   7.574  0.7713E+00  0.1384E+02
   7.584  0.7710E+00  0.1385E+02
   7.594  0.7710E+00  0.1386E+02
   7.604  0.7708E+00  0.1387E+02
   7.614  0.7708E+00  0.1387E+02
   7.624  0.7708E+00  0.1388E+02
   7.634  0.7655E+00  0.1389E+02
   7.644  0.7591E+00  0.1390E+02
   7.654  0.7517E+00  0.1391E+02
   7.664  0.7443E+00  0.1391E+02
   7.674  0.7395E+00  0.1392E+02
   7.684  0.7386E+00  0.1393E+02
   7.694  0.7372E+00  0.1393E+02
   7.704  0.7358E+00  0.1394E+02
   7.714  0.7344E+00  0.1395E+02
   7.724  0.7329E+00  0.1396E+02
   7.734  0.7315E+00  0.1396E+02
   7.744  0.7301E+00  0.1397E+02
   7.754  0.7287E+00  0.1398E+02
   7.764  0.7273E+00  0.1399E+02
   7.774  0.7258E+00  0.1399E+02
   7.784  0.7244E+00  0.1400E+02
   7.794  0.7230E+00  0.1401E+02
   7.804  0.7215E+00  0.1402E+02
   7.814  0.7201E+00  0.1402E+02
   7.824  0.7187E+00  0.1403E+02
   7.834  0.7172E+00  0.1404E+02
   7.844  0.7158E+00  0.1404E+02
   7.854  0.7138E+00  0.1405E+02
   7.864  0.7122E+00  0.1406E+02
   7.874  0.7106E+00  0.1407E+02
   7.884  0.7090E+00  0.1407E+02
   7.894  0.7074E+00  0.1408E+02
   7.904  0.7058E+00  0.1409E+02
   7.914  0.7044E+00  0.1409E+02
   7.924  0.7030E+00  0.1410E+02
   7.934  0.7016E+00  0.1411E+02
   7.944  0.7003E+00  0.1411E+02
   7.954  0.6989E+00  0.1412E+02
   7.964  0.6975E+00  0.1413E+02
   7.974  0.6961E+00  0.1414E+02
   7.984  0.6786E+00  0.1414E+02
   7.994  0.6780E+00  0.1415E+02
   8.004  0.6775E+00  0.1416E+02
   8.014  0.6769E+00  0.1416E+02
   8.024  0.6763E+00  0.1417E+02
   8.034  0.6757E+00  0.1418E+02
   8.044  0.6752E+00  0.1418E+02
   8.054  0.6746E+00  0.1419E+02
   8.064  0.6740E+00  0.1420E+02
   8.074  0.6684E+00  0.1420E+02
   8.084  0.6624E+00  0.1421E+02
   8.094  0.6616E+00  0.1422E+02
   8.104  0.6610E+00  0.1422E+02
   8.114  0.6605E+00  0.1423E+02
   8.124  0.6599E+00  0.1424E+02
   8.134  0.6594E+00  0.1424E+02
   8.144  0.6588E+00  0.1425E+02
   8.154  0.6583E+00  0.1426E+02
   8.164  0.6577E+00  0.1426E+02
   8.174  0.6572E+00  0.1427E+02
   8.184  0.6567E+00  0.1428E+02
   8.194  0.6561E+00  0.1428E+02
   8.204  0.6556E+00  0.1429E+02
   8.214  0.6550E+00  0.1430E+02
   8.224  0.6543E+00  0.1430E+02
   8.234  0.6537E+00  0.1431E+02
   8.244  0.6534E+00  0.1432E+02
   8.254  0.6537E+00  0.1432E+02
   8.264  0.6541E+00  0.1433E+02
   8.274  0.6544E+00  0.1433E+02
   8.284  0.6542E+00  0.1434E+02
   8.294  0.6538E+00  0.1435E+02
   8.304  0.6534E+00  0.1435E+02
   8.314  0.6530E+00  0.1436E+02
   8.324  0.6524E+00  0.1437E+02
   8.334  0.6519E+00  0.1437E+02
   8.344  0.6514E+00  0.1438E+02
   8.354  0.6509E+00  0.1439E+02
   8.364  0.6504E+00  0.1439E+02
   8.374  0.6499E+00  0.1440E+02
   8.384  0.6494E+00  0.1441E+02
   8.394  0.6488E+00  0.1441E+02
   8.404  0.6483E+00  0.1442E+02
   8.414  0.6478E+00  0.1443E+02
   8.424  0.6474E+00  0.1443E+02
   8.434  0.6470E+00  0.1444E+02
   8.444  0.6466E+00  0.1445E+02
   8.454  0.6462E+00  0.1445E+02
   8.464  0.6457E+00  0.1446E+02
   8.474  0.6453E+00  0.1446E+02
   8.484  0.6449E+00  0.1447E+02
   8.494  0.6445E+00  0.1448E+02
   8.504  0.6440E+00  0.1448E+02
   8.514  0.6435E+00  0.1449E+02
   8.524  0.6430E+00  0.1450E+02
   8.534  0.6370E+00  0.1450E+02
   8.544  0.6367E+00  0.1451E+02
   8.554  0.6363E+00  0.1452E+02
   8.564  0.6359E+00  0.1452E+02
   8.574  0.6355E+00  0.1453E+02
   8.584  0.6349E+00  0.1454E+02
   8.594  0.6332E+00  0.1454E+02
   8.604  0.6315E+00  0.1455E+02
   8.614  0.6300E+00  0.1455E+02
   8.624  0.6292E+00  0.1456E+02
   8.634  0.6284E+00  0.1457E+02
   8.644  0.6276E+00  0.1457E+02
   8.654  0.6268E+00  0.1458E+02
   8.664  0.6260E+00  0.1459E+02
   8.674  0.6252E+00  0.1459E+02
   8.684  0.6244E+00  0.1460E+02
   8.694  0.6236E+00  0.1460E+02
   8.704  0.6229E+00  0.1461E+02
   8.714  0.6221E+00  0.1462E+02
   8.724  0.6213E+00  0.1462E+02
   8.734  0.6206E+00  0.1463E+02
   8.744  0.6198E+00  0.1464E+02
   8.754  0.6191E+00  0.1464E+02
   8.764  0.6183E+00  0.1465E+02
   8.774  0.6177E+00  0.1465E+02
   8.784  0.6172E+00  0.1466E+02
   8.794  0.6167E+00  0.1467E+02
   8.804  0.6162E+00  0.1467E+02
   8.814  0.6158E+00  0.1468E+02
   8.824  0.6153E+00  0.1468E+02
   8.834  0.6148E+00  0.1469E+02
   8.844  0.6144E+00  0.1470E+02
   8.854  0.6254E+00  0.1470E+02
   8.864  0.6271E+00  0.1471E+02
   8.874  0.6287E+00  0.1472E+02
   8.884  0.6304E+00  0.1472E+02
   8.894  0.6321E+00  0.1473E+02
   8.904  0.6338E+00  0.1473E+02
   8.914  0.6354E+00  0.1474E+02
   8.924  0.6372E+00  0.1475E+02
   8.934  0.6389E+00  0.1475E+02
   8.944  0.6394E+00  0.1476E+02
   8.954  0.6399E+00  0.1477E+02
   8.964  0.6404E+00  0.1477E+02
   8.974  0.6409E+00  0.1478E+02
   8.984  0.6414E+00  0.1479E+02
   8.994  0.6418E+00  0.1479E+02
   9.004  0.6423E+00  0.1480E+02
   9.014  0.6428E+00  0.1481E+02
   9.024  0.6442E+00  0.1481E+02
   9.034  0.6466E+00  0.1482E+02
   9.044  0.6479E+00  0.1482E+02
   9.054  0.6484E+00  0.1483E+02
   9.064  0.6490E+00  0.1484E+02
   9.074  0.6495E+00  0.1484E+02
   9.084  0.6500E+00  0.1485E+02
   9.094  0.6676E+00  0.1486E+02
   9.104  0.7416E+00  0.1486E+02
   9.114  0.8360E+00  0.1487E+02
   9.124  0.9110E+00  0.1488E+02
   9.134  0.9860E+00  0.1489E+02
   9.144  0.1061E+01  0.1490E+02
   9.154  0.9474E+00  0.1491E+02
   9.164  0.9569E+00  0.1492E+02
   9.174  0.9665E+00  0.1493E+02
   9.184  0.9761E+00  0.1494E+02
   9.194  0.9841E+00  0.1495E+02
   9.204  0.9900E+00  0.1496E+02
   9.214  0.9958E+00  0.1497E+02
   9.224  0.1013E+01  0.1498E+02
   9.234  0.1037E+01  0.1499E+02
   9.244  0.1062E+01  0.1500E+02
   9.254  0.1085E+01  0.1501E+02
   9.264  0.1108E+01  0.1502E+02
   9.274  0.1115E+01  0.1503E+02
   9.284  0.1111E+01  0.1504E+02
   9.294  0.1089E+01  0.1505E+02
   9.304  0.1062E+01  0.1507E+02
   9.314  0.9442E+00  0.1507E+02
   9.324  0.9320E+00  0.1508E+02
   9.334  0.9194E+00  0.1509E+02
   9.344  0.9065E+00  0.1510E+02
   9.354  0.8935E+00  0.1511E+02
   9.364  0.8802E+00  0.1512E+02
   9.374  0.8671E+00  0.1513E+02
   9.384  0.8540E+00  0.1514E+02
   9.394  0.8410E+00  0.1515E+02
   9.404  0.8279E+00  0.1515E+02
   9.414  0.8148E+00  0.1516E+02
   9.424  0.8018E+00  0.1517E+02
   9.434  0.7888E+00  0.1518E+02
   9.444  0.7757E+00  0.1519E+02
   9.454  0.7628E+00  0.1519E+02
   9.464  0.7500E+00  0.1520E+02
   9.474  0.7827E+00  0.1521E+02
   9.484  0.7595E+00  0.1522E+02
   9.494  0.7516E+00  0.1523E+02
   9.504  0.7437E+00  0.1523E+02
   9.514  0.7357E+00  0.1524E+02
   9.524  0.7276E+00  0.1525E+02
   9.534  0.7196E+00  0.1525E+02
   9.544  0.7116E+00  0.1526E+02
   9.554  0.7036E+00  0.1527E+02
   9.564  0.6956E+00  0.1528E+02
   9.574  0.6876E+00  0.1528E+02
   9.584  0.6796E+00  0.1529E+02
   9.594  0.6723E+00  0.1530E+02
   9.604  0.6662E+00  0.1530E+02
   9.614  0.6602E+00  0.1531E+02
   9.624  0.6541E+00  0.1532E+02
   9.634  0.6480E+00  0.1532E+02
   9.644  0.6419E+00  0.1533E+02
   9.654  0.6358E+00  0.1534E+02
   9.664  0.6297E+00  0.1534E+02
   9.674  0.6254E+00  0.1535E+02
   9.684  0.6212E+00  0.1535E+02
   9.694  0.6169E+00  0.1536E+02
   9.704  0.6111E+00  0.1537E+02
   9.714  0.6062E+00  0.1537E+02
   9.724  0.6013E+00  0.1538E+02
   9.734  0.5976E+00  0.1538E+02
   9.744  0.5962E+00  0.1539E+02
   9.754  0.5949E+00  0.1540E+02
   9.764  0.5940E+00  0.1540E+02
   9.774  0.5946E+00  0.1541E+02
   9.784  0.6534E+00  0.1542E+02
   9.794  0.6534E+00  0.1542E+02
   9.804  0.6534E+00  0.1543E+02
   9.814  0.6534E+00  0.1543E+02
   9.824  0.6534E+00  0.1544E+02
   9.834  0.6533E+00  0.1545E+02
   9.844  0.6507E+00  0.1545E+02
   9.854  0.6482E+00  0.1546E+02
   9.864  0.6457E+00  0.1547E+02
   9.874  0.6431E+00  0.1547E+02
   9.884  0.6406E+00  0.1548E+02
   9.894  0.6353E+00  0.1549E+02
   9.904  0.6317E+00  0.1549E+02
   9.914  0.6292E+00  0.1550E+02
   9.924  0.6256E+00  0.1551E+02
   9.934  0.6243E+00  0.1551E+02
   9.944  0.6229E+00  0.1552E+02
   9.954  0.6216E+00  0.1552E+02
   9.964  0.6200E+00  0.1553E+02
   9.974  0.6180E+00  0.1554E+02
   9.984  0.6160E+00  0.1554E+02
   9.994  0.6140E+00  0.1555E+02
  10.004  0.6157E+00  0.1555E+02
  10.014  0.6174E+00  0.1556E+02
  10.024  0.6206E+00  0.1557E+02
  10.034  0.5045E+00  0.1557E+02
  10.044  0.5056E+00  0.1558E+02
  10.054  0.5065E+00  0.1558E+02
  10.064  0.5074E+00  0.1559E+02
  10.074  0.5082E+00  0.1559E+02
  10.084  0.5091E+00  0.1560E+02
  10.094  0.5100E+00  0.1560E+02
  10.104  0.5108E+00  0.1561E+02
  10.114  0.5117E+00  0.1561E+02
  10.124  0.5125E+00  0.1562E+02
  10.134  0.5134E+00  0.1562E+02
  10.144  0.5141E+00  0.1563E+02
  10.154  0.4458E+00  0.1563E+02
  10.164  0.4465E+00  0.1564E+02
  10.174  0.4472E+00  0.1564E+02
  10.184  0.4477E+00  0.1565E+02
  10.194  0.4482E+00  0.1565E+02
  10.204  0.5238E+00  0.1566E+02
  10.214  0.5166E+00  0.1566E+02
  10.224  0.5094E+00  0.1567E+02
  10.234  0.5023E+00  0.1567E+02
  10.244  0.4951E+00  0.1568E+02
  10.254  0.4879E+00  0.1568E+02
  10.264  0.3758E+00  0.1569E+02
  10.274  0.3676E+00  0.1569E+02
  10.284  0.3594E+00  0.1569E+02
  10.294  0.3512E+00  0.1570E+02
  10.304  0.3431E+00  0.1570E+02
  10.314  0.3349E+00  0.1570E+02
  10.324  0.3268E+00  0.1571E+02
  10.334  0.3186E+00  0.1571E+02
  10.344  0.3104E+00  0.1571E+02
  10.354  0.2105E+00  0.1572E+02
  10.364  0.2098E+00  0.1572E+02
  10.374  0.2092E+00  0.1573E+02
  10.384  0.2085E+00  0.1573E+02
  10.394  0.2078E+00  0.1573E+02
  10.404  0.2072E+00  0.1573E+02
  10.414  0.2065E+00  0.1573E+02
  10.424  0.2058E+00  0.1574E+02
  10.434  0.2051E+00  0.1574E+02
  10.444  0.2044E+00  0.1574E+02
  10.454  0.2037E+00  0.1574E+02
  10.464  0.2030E+00  0.1574E+02
  10.474  0.2023E+00  0.1575E+02
  10.484  0.2016E+00  0.1575E+02
  10.494  0.2009E+00  0.1575E+02
  10.504  0.2002E+00  0.1575E+02
  10.514  0.1995E+00  0.1575E+02
  10.524  0.1988E+00  0.1576E+02
  10.534  0.1981E+00  0.1576E+02
  10.544  0.1973E+00  0.1576E+02
  10.554  0.1966E+00  0.1576E+02
  10.564  0.1959E+00  0.1576E+02
  10.574  0.1952E+00  0.1577E+02
  10.584  0.1945E+00  0.1577E+02
  10.594  0.1938E+00  0.1577E+02
  10.604  0.1931E+00  0.1577E+02
  10.614  0.1924E+00  0.1577E+02
  10.624  0.1917E+00  0.1578E+02
  10.634  0.1910E+00  0.1578E+02
  10.644  0.1903E+00  0.1578E+02
  10.654  0.1895E+00  0.1578E+02
  10.664  0.1888E+00  0.1578E+02
  10.674  0.1881E+00  0.1579E+02
  10.684  0.1875E+00  0.1579E+02
  10.694  0.1872E+00  0.1579E+02
  10.704  0.1870E+00  0.1579E+02
  10.714  0.1868E+00  0.1579E+02
  10.724  0.1926E+00  0.1579E+02
  10.734  0.1923E+00  0.1580E+02
  10.744  0.1920E+00  0.1580E+02
  10.754  0.1916E+00  0.1580E+02
  10.764  0.1913E+00  0.1580E+02
  10.774  0.1910E+00  0.1580E+02
  10.784  0.1907E+00  0.1581E+02
  10.794  0.3408E+00  0.1581E+02
  10.804  0.3050E+00  0.1581E+02
  10.814  0.2692E+00  0.1582E+02
  10.824  0.2334E+00  0.1582E+02
  10.834  0.1976E+00  0.1582E+02
  10.844  0.1734E+00  0.1582E+02
  10.854  0.1726E+00  0.1582E+02
  10.864  0.1717E+00  0.1583E+02
  10.874  0.1709E+00  0.1583E+02
  10.884  0.1700E+00  0.1583E+02
  10.894  0.1692E+00  0.1583E+02
  10.904  0.1683E+00  0.1583E+02
  10.914  0.1674E+00  0.1583E+02
  10.924  0.1666E+00  0.1584E+02
  10.934  0.1657E+00  0.1584E+02
  10.944  0.1649E+00  0.1584E+02
  10.954  0.1640E+00  0.1584E+02
  10.964  0.1632E+00  0.1584E+02
  10.974  0.1623E+00  0.1584E+02
  10.984  0.1615E+00  0.1585E+02
  10.994  0.1606E+00  0.1585E+02
  11.004  0.1597E+00  0.1585E+02
  11.014  0.1589E+00  0.1585E+02
  11.024  0.1576E+00  0.1585E+02
  11.034  0.1563E+00  0.1585E+02
  11.044  0.1547E+00  0.1586E+02
  11.054  0.1533E+00  0.1586E+02
  11.064  0.1519E+00  0.1586E+02
  11.074  0.1504E+00  0.1586E+02
  11.084  0.1490E+00  0.1586E+02
  11.094  0.1476E+00  0.1586E+02
  11.104  0.1472E+00  0.1586E+02
  11.114  0.1473E+00  0.1587E+02
  11.124  0.1473E+00  0.1587E+02
  11.134  0.1474E+00  0.1587E+02
  11.144  0.1475E+00  0.1587E+02
  11.154  0.1475E+00  0.1587E+02
  11.164  0.1476E+00  0.1587E+02
  11.174  0.1477E+00  0.1587E+02
  11.184  0.1477E+00  0.1588E+02
  11.194  0.1478E+00  0.1588E+02
  11.204  0.1479E+00  0.1588E+02
  11.214  0.1470E+00  0.1588E+02
  11.224  0.1457E+00  0.1588E+02
  11.234  0.1443E+00  0.1588E+02
  11.244  0.1429E+00  0.1588E+02
  11.254  0.1416E+00  0.1589E+02
  11.264  0.1402E+00  0.1589E+02
  11.274  0.1388E+00  0.1589E+02
  11.284  0.1375E+00  0.1589E+02
  11.294  0.1361E+00  0.1589E+02
  11.304  0.1347E+00  0.1589E+02
  11.314  0.1334E+00  0.1589E+02
  11.324  0.1320E+00  0.1590E+02
  11.334  0.1306E+00  0.1590E+02
  11.344  0.1293E+00  0.1590E+02
  11.354  0.1279E+00  0.1590E+02
  11.364  0.1266E+00  0.1590E+02
  11.374  0.1252E+00  0.1590E+02
  11.384  0.1238E+00  0.1590E+02
  11.394  0.1225E+00  0.1590E+02
  11.404  0.1211E+00  0.1591E+02
  11.414  0.1197E+00  0.1591E+02
  11.424  0.1184E+00  0.1591E+02
  11.434  0.1525E+00  0.1591E+02
  11.444  0.2273E+00  0.1591E+02
  11.454  0.3021E+00  0.1591E+02
  11.464  0.1083E+00  0.1592E+02
  11.474  0.1068E+00  0.1592E+02
  11.484  0.1054E+00  0.1592E+02
  11.494  0.1040E+00  0.1592E+02
  11.504  0.1025E+00  0.1592E+02
  11.514  0.1011E+00  0.1592E+02
  11.524  0.9966E-01  0.1592E+02
  11.534  0.9823E-01  0.1592E+02
  11.544  0.9679E-01  0.1593E+02
  11.554  0.9536E-01  0.1593E+02
  11.564  0.9393E-01  0.1593E+02
  11.574  0.9249E-01  0.1593E+02
  11.584  0.9106E-01  0.1593E+02
  11.594  0.8962E-01  0.1593E+02
  11.604  0.8819E-01  0.1593E+02
  11.614  0.8676E-01  0.1593E+02
  11.624  0.8532E-01  0.1593E+02
  11.634  0.8389E-01  0.1593E+02
  11.644  0.4562E+00  0.1594E+02
  11.654  0.1255E+00  0.1594E+02
  11.664  0.1236E+00  0.1594E+02
  11.674  0.1218E+00  0.1594E+02
  11.684  0.1199E+00  0.1594E+02
  11.694  0.1180E+00  0.1595E+02
  11.704  0.1162E+00  0.1595E+02
  11.714  0.1143E+00  0.1595E+02
  11.724  0.1125E+00  0.1595E+02
  11.734  0.1106E+00  0.1595E+02
  11.744  0.1087E+00  0.1595E+02
  11.754  0.1069E+00  0.1595E+02
  11.764  0.1050E+00  0.1595E+02
  11.774  0.1032E+00  0.1595E+02
  11.784  0.1013E+00  0.1595E+02
  11.794  0.9945E-01  0.1596E+02
  11.804  0.9759E-01  0.1596E+02
  11.814  0.9574E-01  0.1596E+02
  11.824  0.9388E-01  0.1596E+02
  11.834  0.9202E-01  0.1596E+02
  11.844  0.9016E-01  0.1596E+02
  11.854  0.8830E-01  0.1596E+02
  11.864  0.8644E-01  0.1596E+02
  11.874  0.8459E-01  0.1596E+02
  11.884  0.8273E-01  0.1596E+02
  11.894  0.8087E-01  0.1596E+02
  11.904  0.7901E-01  0.1597E+02
  11.914  0.7715E-01  0.1597E+02
  11.924  0.7530E-01  0.1597E+02
  11.934  0.7470E-01  0.1597E+02
  11.944  0.9285E-01  0.1597E+02
  11.954  0.1110E+00  0.1597E+02
  11.964  0.1212E+00  0.1597E+02
  11.974  0.1179E+00  0.1597E+02
  11.984  0.1146E+00  0.1597E+02
  11.994  0.1114E+00  0.1597E+02
  12.004  0.1081E+00  0.1598E+02
  12.014  0.1048E+00  0.1598E+02
  12.024  0.1015E+00  0.1598E+02
  12.034  0.9820E-01  0.1598E+02
  12.044  0.9491E-01  0.1598E+02
  12.054  0.9162E-01  0.1598E+02
  12.064  0.8974E-01  0.1598E+02
  12.074  0.9751E-01  0.1598E+02
  12.084  0.1053E+00  0.1598E+02
  12.094  0.1130E+00  0.1598E+02
  12.104  0.1208E+00  0.1599E+02
  12.114  0.1286E+00  0.1599E+02
  12.124  0.1363E+00  0.1599E+02
  12.134  0.1441E+00  0.1599E+02
  12.144  0.1519E+00  0.1599E+02
  12.154  0.1596E+00  0.1599E+02
  12.164  0.1674E+00  0.1599E+02
  12.174  0.1752E+00  0.1600E+02
  12.184  0.1829E+00  0.1600E+02
  12.194  0.1907E+00  0.1600E+02
